'sample interval','vx'
'0.001 sec','mV'
0,-0.084
1,-0.082
2,-0.080
3,-0.082
4,-0.084
5,-0.083
6,-0.083
7,-0.085
8,-0.082
9,-0.080
10,-0.081
11,-0.079
12,-0.079
13,-0.079
14,-0.077
15,-0.077
16,-0.077
17,-0.077
18,-0.076
19,-0.079
20,-0.079
21,-0.075
22,-0.074
23,-0.075
24,-0.075
25,-0.077
26,-0.078
27,-0.077
28,-0.077
29,-0.076
30,-0.074
31,-0.072
32,-0.074
33,-0.074
34,-0.074
35,-0.074
36,-0.071
37,-0.071
38,-0.073
39,-0.074
40,-0.075
41,-0.075
42,-0.074
43,-0.072
44,-0.074
45,-0.074
46,-0.074
47,-0.075
48,-0.073
49,-0.074
50,-0.074
51,-0.072
52,-0.075
53,-0.074
54,-0.071
55,-0.070
56,-0.070
57,-0.071
58,-0.070
59,-0.070
60,-0.070
61,-0.070
62,-0.069
63,-0.069
64,-0.070
65,-0.069
66,-0.068
67,-0.068
68,-0.069
69,-0.069
70,-0.066
71,-0.067
72,-0.070
73,-0.069
74,-0.068
75,-0.068
76,-0.065
77,-0.065
78,-0.065
79,-0.064
80,-0.065
81,-0.062
82,-0.059
83,-0.057
84,-0.054
85,-0.054
86,-0.054
87,-0.053
88,-0.051
89,-0.050
90,-0.050
91,-0.048
92,-0.048
93,-0.047
94,-0.043
95,-0.042
96,-0.039
97,-0.036
98,-0.035
99,-0.033
100,-0.035
101,-0.037
102,-0.038
103,-0.040
104,-0.042
105,-0.047
106,-0.052
107,-0.053
108,-0.057
109,-0.058
110,-0.059
111,-0.059
112,-0.058
113,-0.056
114,-0.052
115,-0.053
116,-0.051
117,-0.046
118,-0.045
119,-0.044
120,-0.043
121,-0.042
122,-0.046
123,-0.047
124,-0.048
125,-0.051
126,-0.048
127,-0.045
128,-0.043
129,-0.043
130,-0.041
131,-0.037
132,-0.035
133,-0.034
134,-0.034
135,-0.030
136,-0.029
137,-0.026
138,-0.025
139,-0.023
140,-0.021
141,-0.019
142,-0.019
143,-0.022
144,-0.022
145,-0.025
146,-0.026
147,-0.024
148,-0.022
149,-0.022
150,-0.025
151,-0.032
152,-0.033
153,-0.035
154,-0.038
155,-0.043
156,-0.050
157,-0.053
158,-0.059
159,-0.063
160,-0.065
161,-0.067
162,-0.070
163,-0.076
164,-0.081
165,-0.083
166,-0.083
167,-0.082
168,-0.083
169,-0.084
170,-0.083
171,-0.083
172,-0.081
173,-0.079
174,-0.079
175,-0.079
176,-0.076
177,-0.075
178,-0.076
179,-0.077
180,-0.076
181,-0.077
182,-0.077
183,-0.076
184,-0.078
185,-0.076
186,-0.075
187,-0.074
188,-0.074
189,-0.075
190,-0.075
191,-0.075
192,-0.076
193,-0.077
194,-0.077
195,-0.079
196,-0.082
197,-0.088
198,-0.096
199,-0.107
200,-0.119
201,-0.129
202,-0.138
203,-0.149
204,-0.163
205,-0.175
206,-0.181
207,-0.181
208,-0.186
209,-0.183
210,-0.171
211,-0.153
212,-0.136
213,-0.117
214,-0.100
215,-0.080
216,-0.057
217,-0.042
218,-0.029
219,-0.018
220,0.001
221,0.023
222,0.031
223,0.043
224,0.065
225,0.083
226,0.113
227,0.138
228,0.154
229,0.173
230,0.203
231,0.224
232,0.213
233,0.197
234,0.161
235,0.112
236,0.064
237,0.020
238,-0.009
239,-0.047
240,-0.103
241,-0.123
242,-0.141
243,-0.179
244,-0.196
245,-0.206
246,-0.256
247,-0.337
248,-0.415
249,-0.486
250,-0.525
251,-0.542
252,-0.556
253,-0.567
254,-0.578
255,-0.578
256,-0.569
257,-0.569
258,-0.552
259,-0.529
260,-0.512
261,-0.477
262,-0.438
263,-0.400
264,-0.349
265,-0.302
266,-0.272
267,-0.234
268,-0.196
269,-0.167
270,-0.143
271,-0.126
272,-0.111
273,-0.095
274,-0.080
275,-0.071
276,-0.065
277,-0.062
278,-0.059
279,-0.046
280,-0.045
281,-0.042
282,-0.033
283,-0.029
284,-0.028
285,-0.028
286,-0.027
287,-0.017
288,-0.009
289,-0.015
290,-0.015
291,-0.011
292,-0.008
293,-0.006
294,-0.003
295,-0.003
296,-0.009
297,-0.009
298,-0.008
299,-0.006
300,-0.005
301,-0.001
302,0.000
303,-0.005
304,-0.003
305,0.005
306,0.012
307,0.009
308,0.011
309,0.019
310,0.013
311,0.015
312,0.017
313,0.013
314,0.015
315,0.011
316,0.008
317,0.006
318,0.011
319,0.011
320,0.015
321,0.018
322,0.017
323,0.021
324,0.027
325,0.031
326,0.031
327,0.035
328,0.035
329,0.039
330,0.042
331,0.041
332,0.035
333,0.035
334,0.037
335,0.037
336,0.045
337,0.038
338,0.036
339,0.030
340,0.024
341,0.032
342,0.030
343,0.027
344,0.037
345,0.035
346,0.025
347,0.025
348,0.020
349,0.018
350,0.018
351,0.014
352,0.013
353,0.009
354,0.010
355,0.010
356,0.015
357,0.015
358,0.018
359,0.030
360,0.033
361,0.038
362,0.035
363,0.034
364,0.043
365,0.043
366,0.046
367,0.056
368,0.048
369,0.048
370,0.051
371,0.043
372,0.042
373,0.037
374,0.030
375,0.028
376,0.030
377,0.032
378,0.030
379,0.025
380,0.033
381,0.038
382,0.034
383,0.036
384,0.036
385,0.035
386,0.028
387,0.025
388,0.033
389,0.033
390,0.036
391,0.038
392,0.037
393,0.041
394,0.041
395,0.040
396,0.032
397,0.026
398,0.030
399,0.028
400,0.024
401,0.020
402,0.013
403,0.015
404,0.013
405,0.009
406,0.011
407,0.008
408,0.013
409,0.013
410,0.011
411,0.013
412,0.011
413,0.015
414,0.013
415,0.006
416,0.009
417,0.008
418,0.004
419,0.000
420,0.003
421,0.003
422,0.002
423,-0.001
424,-0.004
425,-0.003
426,-0.009
427,-0.013
428,-0.016
429,-0.028
430,-0.035
431,-0.040
432,-0.046
433,-0.051
434,-0.052
435,-0.057
436,-0.056
437,-0.059
438,-0.061
439,-0.058
440,-0.068
441,-0.069
442,-0.062
443,-0.065
444,-0.066
445,-0.072
446,-0.075
447,-0.070
448,-0.077
449,-0.093
450,-0.093
451,-0.088
452,-0.090
453,-0.099
454,-0.102
455,-0.092
456,-0.095
457,-0.106
458,-0.115
459,-0.122
460,-0.126
461,-0.128
462,-0.127
463,-0.134
464,-0.138
465,-0.134
466,-0.133
467,-0.134
468,-0.138
469,-0.144
470,-0.146
471,-0.146
472,-0.149
473,-0.150
474,-0.140
475,-0.138
476,-0.145
477,-0.141
478,-0.141
479,-0.150
480,-0.148
481,-0.149
482,-0.156
483,-0.165
484,-0.167
485,-0.160
486,-0.160
487,-0.165
488,-0.163
489,-0.150
490,-0.148
491,-0.154
492,-0.152
493,-0.143
494,-0.135
495,-0.141
496,-0.144
497,-0.142
498,-0.147
499,-0.141
500,-0.138
501,-0.140
502,-0.139
503,-0.137
504,-0.129
505,-0.124
506,-0.127
507,-0.129
508,-0.120
509,-0.120
510,-0.118
511,-0.117
512,-0.113
513,-0.103
514,-0.111
515,-0.110
516,-0.112
517,-0.112
518,-0.109
519,-0.116
520,-0.114
521,-0.114
522,-0.120
523,-0.124
524,-0.125
525,-0.126
526,-0.130
527,-0.129
528,-0.114
529,-0.113
530,-0.117
531,-0.108
532,-0.114
533,-0.108
534,-0.103
535,-0.106
536,-0.103
537,-0.102
538,-0.092
539,-0.088
540,-0.083
541,-0.077
542,-0.081
543,-0.080
544,-0.082
545,-0.077
546,-0.077
547,-0.082
548,-0.079
549,-0.072
550,-0.070
551,-0.065
552,-0.071
553,-0.066
554,-0.060
555,-0.059
556,-0.051
557,-0.062
558,-0.059
559,-0.069
560,-0.072
561,-0.074
562,-0.085
563,-0.083
564,-0.097
565,-0.099
566,-0.097
567,-0.095
568,-0.093
569,-0.100
570,-0.100
571,-0.105
572,-0.113
573,-0.119
574,-0.114
575,-0.102
576,-0.110
577,-0.111
578,-0.102
579,-0.102
580,-0.097
581,-0.086
582,-0.085
583,-0.093
584,-0.104
585,-0.093
586,-0.080
587,-0.094
588,-0.093
589,-0.084
590,-0.090
591,-0.103
592,-0.093
593,-0.084
594,-0.089
595,-0.088
596,-0.095
597,-0.095
598,-0.094
599,-0.095
600,-0.093
601,-0.092
602,-0.098
603,-0.114
604,-0.106
605,-0.101
606,-0.108
607,-0.107
608,-0.105
609,-0.100
610,-0.095
611,-0.091
612,-0.103
613,-0.103
614,-0.096
615,-0.102
616,-0.092
617,-0.093
618,-0.100
619,-0.098
620,-0.097
621,-0.090
622,-0.083
623,-0.086
624,-0.089
625,-0.092
626,-0.099
627,-0.088
628,-0.092
629,-0.094
630,-0.088
631,-0.102
632,-0.103
633,-0.101
634,-0.099
635,-0.090
636,-0.093
637,-0.095
638,-0.092
639,-0.092
640,-0.086
641,-0.092
642,-0.097
643,-0.088
644,-0.087
645,-0.096
646,-0.093
647,-0.086
648,-0.085
649,-0.084
650,-0.091
651,-0.100
652,-0.100
653,-0.095
654,-0.095
655,-0.104
656,-0.098
657,-0.087
658,-0.087
659,-0.082
660,-0.079
661,-0.081
662,-0.079
663,-0.082
664,-0.086
665,-0.084
666,-0.080
667,-0.085
668,-0.086
669,-0.085
670,-0.092
671,-0.090
672,-0.090
673,-0.086
674,-0.085
675,-0.088
676,-0.086
677,-0.087
678,-0.086
679,-0.087
680,-0.093
681,-0.091
682,-0.086
683,-0.085
684,-0.087
685,-0.083
686,-0.082
687,-0.083
688,-0.088
689,-0.097
690,-0.084
691,-0.075
692,-0.074
693,-0.070
694,-0.072
695,-0.070
696,-0.073
697,-0.077
698,-0.076
699,-0.073
700,-0.077
701,-0.082
702,-0.071
703,-0.071
704,-0.080
705,-0.084
706,-0.083
707,-0.077
708,-0.092
709,-0.091
710,-0.081
711,-0.078
712,-0.085
713,-0.099
714,-0.088
715,-0.087
716,-0.095
717,-0.084
718,-0.077
719,-0.082
720,-0.080
721,-0.076
722,-0.082
723,-0.084
724,-0.085
725,-0.083
726,-0.086
727,-0.084
728,-0.081
729,-0.088
730,-0.073
731,-0.063
732,-0.063
733,-0.053
734,-0.049
735,-0.049
736,-0.051
737,-0.042
738,-0.043
739,-0.050
740,-0.053
741,-0.061
742,-0.060
743,-0.056
744,-0.054
745,-0.051
746,-0.046
747,-0.041
748,-0.038
749,-0.048
750,-0.052
751,-0.049
752,-0.044
753,-0.049
754,-0.061
755,-0.070
756,-0.068
757,-0.064
758,-0.059
759,-0.058
760,-0.057
761,-0.054
762,-0.051
763,-0.045
764,-0.050
765,-0.052
766,-0.051
767,-0.054
768,-0.053
769,-0.050
770,-0.050
771,-0.049
772,-0.049
773,-0.056
774,-0.050
775,-0.046
776,-0.045
777,-0.038
778,-0.045
779,-0.049
780,-0.044
781,-0.056
782,-0.052
783,-0.041
784,-0.040
785,-0.036
786,-0.030
787,-0.020
788,-0.019
789,-0.025
790,-0.026
791,-0.032
792,-0.032
793,-0.030
794,-0.038
795,-0.034
796,-0.032
797,-0.031
798,-0.039
799,-0.053
800,-0.050
801,-0.055
802,-0.059
803,-0.069
804,-0.065
805,-0.053
806,-0.067
807,-0.079
808,-0.075
809,-0.075
810,-0.083
811,-0.081
812,-0.083
813,-0.090
814,-0.086
815,-0.088
816,-0.090
817,-0.091
818,-0.095
819,-0.089
820,-0.086
821,-0.096
822,-0.104
823,-0.104
824,-0.108
825,-0.101
826,-0.093
827,-0.098
828,-0.093
829,-0.087
830,-0.093
831,-0.093
832,-0.091
833,-0.097
834,-0.090
835,-0.086
836,-0.085
837,-0.077
838,-0.080
839,-0.077
840,-0.080
841,-0.085
842,-0.084
843,-0.093
844,-0.101
845,-0.116
846,-0.123
847,-0.132
848,-0.146
849,-0.157
850,-0.169
851,-0.174
852,-0.198
853,-0.199
854,-0.178
855,-0.161
856,-0.138
857,-0.126
858,-0.105
859,-0.089
860,-0.070
861,-0.041
862,-0.029
863,-0.017
864,-0.001
865,0.032
866,0.057
867,0.060
868,0.075
869,0.089
870,0.099
871,0.117
872,0.136
873,0.147
874,0.174
875,0.186
876,0.189
877,0.171
878,0.135
879,0.108
880,0.040
881,-0.012
882,-0.033
883,-0.073
884,-0.124
885,-0.150
886,-0.174
887,-0.192
888,-0.175
889,-0.176
890,-0.208
891,-0.274
892,-0.365
893,-0.440
894,-0.494
895,-0.536
896,-0.560
897,-0.569
898,-0.567
899,-0.583
900,-0.591
901,-0.592
902,-0.593
903,-0.576
904,-0.569
905,-0.561
906,-0.542
907,-0.521
908,-0.488
909,-0.441
910,-0.401
911,-0.367
912,-0.323
913,-0.277
914,-0.245
915,-0.211
916,-0.188
917,-0.173
918,-0.145
919,-0.125
920,-0.103
921,-0.091
922,-0.082
923,-0.073
924,-0.064
925,-0.044
926,-0.030
927,-0.029
928,-0.025
929,-0.023
930,-0.025
931,-0.023
932,-0.009
933,0.003
934,-0.003
935,0.001
936,0.002
937,-0.003
938,-0.006
939,-0.015
940,-0.017
941,-0.021
942,-0.019
943,-0.009
944,-0.017
945,-0.025
946,-0.013
947,-0.008
948,-0.008
949,0.007
950,0.015
951,0.009
952,0.013
953,0.012
954,0.006
955,0.004
956,-0.002
957,0.006
958,0.011
959,0.013
960,0.020
961,0.022
962,0.028
963,0.028
964,0.025
965,0.011
966,0.005
967,0.015
968,0.019
969,0.028
970,0.028
971,0.028
972,0.028
973,0.029
974,0.034
975,0.034
976,0.024
977,0.018
978,0.032
979,0.037
980,0.039
981,0.034
982,0.037
983,0.045
984,0.041
985,0.043
986,0.043
987,0.042
988,0.040
989,0.042
990,0.048
991,0.044
992,0.040
993,0.040
994,0.041
995,0.048
996,0.049
997,0.031
998,0.031
999,0.031
1000,0.019
1001,0.019
1002,0.019
1003,0.020
1004,0.018
1005,0.012
1006,0.013
1007,0.011
1008,0.005
1009,0.022
1010,0.025
1011,0.014
1012,0.022
1013,0.025
1014,0.025
1015,0.033
1016,0.041
1017,0.040
1018,0.023
1019,0.019
1020,0.026
1021,0.019
1022,0.029
1023,0.031
1024,0.025
1025,0.029
1026,0.026
1027,0.033
1028,0.041
1029,0.042
1030,0.050
1031,0.051
1032,0.045
1033,0.050
1034,0.045
1035,0.040
1036,0.045
1037,0.043
1038,0.037
1039,0.035
1040,0.030
1041,0.036
1042,0.042
1043,0.028
1044,0.036
1045,0.049
1046,0.046
1047,0.049
1048,0.053
1049,0.061
1050,0.053
1051,0.045
1052,0.044
1053,0.036
1054,0.031
1055,0.035
1056,0.040
1057,0.035
1058,0.035
1059,0.033
1060,0.025
1061,0.015
1062,0.013
1063,0.015
1064,0.009
1065,0.003
1066,-0.005
1067,-0.006
1068,-0.004
1069,-0.005
1070,-0.005
1071,0.003
1072,-0.001
1073,-0.008
1074,-0.009
1075,-0.014
1076,-0.027
1077,-0.033
1078,-0.040
1079,-0.051
1080,-0.046
1081,-0.051
1082,-0.054
1083,-0.043
1084,-0.042
1085,-0.059
1086,-0.051
1087,-0.045
1088,-0.056
1089,-0.060
1090,-0.070
1091,-0.072
1092,-0.079
1093,-0.079
1094,-0.089
1095,-0.094
1096,-0.085
1097,-0.085
1098,-0.086
1099,-0.094
1100,-0.094
1101,-0.099
1102,-0.103
1103,-0.104
1104,-0.106
1105,-0.104
1106,-0.107
1107,-0.118
1108,-0.112
1109,-0.112
1110,-0.121
1111,-0.114
1112,-0.116
1113,-0.120
1114,-0.123
1115,-0.118
1116,-0.122
1117,-0.117
1118,-0.113
1119,-0.123
1120,-0.120
1121,-0.135
1122,-0.147
1123,-0.144
1124,-0.139
1125,-0.137
1126,-0.132
1127,-0.136
1128,-0.152
1129,-0.147
1130,-0.141
1131,-0.138
1132,-0.134
1133,-0.146
1134,-0.151
1135,-0.150
1136,-0.152
1137,-0.153
1138,-0.146
1139,-0.144
1140,-0.156
1141,-0.157
1142,-0.149
1143,-0.146
1144,-0.148
1145,-0.154
1146,-0.157
1147,-0.162
1148,-0.162
1149,-0.147
1150,-0.143
1151,-0.142
1152,-0.141
1153,-0.132
1154,-0.120
1155,-0.123
1156,-0.126
1157,-0.120
1158,-0.121
1159,-0.118
1160,-0.118
1161,-0.118
1162,-0.106
1163,-0.102
1164,-0.111
1165,-0.108
1166,-0.099
1167,-0.108
1168,-0.105
1169,-0.102
1170,-0.109
1171,-0.106
1172,-0.104
1173,-0.093
1174,-0.091
1175,-0.097
1176,-0.092
1177,-0.082
1178,-0.071
1179,-0.077
1180,-0.079
1181,-0.084
1182,-0.091
1183,-0.088
1184,-0.098
1185,-0.101
1186,-0.102
1187,-0.106
1188,-0.100
1189,-0.088
1190,-0.083
1191,-0.091
1192,-0.090
1193,-0.085
1194,-0.086
1195,-0.093
1196,-0.097
1197,-0.092
1198,-0.103
1199,-0.101
1200,-0.096
1201,-0.101
1202,-0.096
1203,-0.088
1204,-0.077
1205,-0.085
1206,-0.089
1207,-0.082
1208,-0.075
1209,-0.074
1210,-0.070
1211,-0.057
1212,-0.062
1213,-0.064
1214,-0.070
1215,-0.073
1216,-0.064
1217,-0.071
1218,-0.074
1219,-0.067
1220,-0.072
1221,-0.075
1222,-0.067
1223,-0.070
1224,-0.071
1225,-0.066
1226,-0.071
1227,-0.073
1228,-0.080
1229,-0.092
1230,-0.100
1231,-0.090
1232,-0.089
1233,-0.093
1234,-0.086
1235,-0.084
1236,-0.077
1237,-0.077
1238,-0.070
1239,-0.065
1240,-0.072
1241,-0.077
1242,-0.077
1243,-0.066
1244,-0.071
1245,-0.079
1246,-0.075
1247,-0.074
1248,-0.085
1249,-0.089
1250,-0.076
1251,-0.081
1252,-0.089
1253,-0.088
1254,-0.088
1255,-0.090
1256,-0.089
1257,-0.079
1258,-0.080
1259,-0.078
1260,-0.080
1261,-0.085
1262,-0.079
1263,-0.081
1264,-0.079
1265,-0.070
1266,-0.066
1267,-0.068
1268,-0.068
1269,-0.080
1270,-0.087
1271,-0.077
1272,-0.069
1273,-0.063
1274,-0.052
1275,-0.051
1276,-0.059
1277,-0.058
1278,-0.052
1279,-0.051
1280,-0.052
1281,-0.051
1282,-0.054
1283,-0.064
1284,-0.067
1285,-0.071
1286,-0.080
1287,-0.088
1288,-0.096
1289,-0.099
1290,-0.099
1291,-0.095
1292,-0.101
1293,-0.103
1294,-0.099
1295,-0.095
1296,-0.079
1297,-0.075
1298,-0.074
1299,-0.075
1300,-0.067
1301,-0.070
1302,-0.088
1303,-0.089
1304,-0.093
1305,-0.088
1306,-0.089
1307,-0.099
1308,-0.089
1309,-0.083
1310,-0.079
1311,-0.071
1312,-0.073
1313,-0.079
1314,-0.078
1315,-0.084
1316,-0.077
1317,-0.073
1318,-0.070
1319,-0.050
1320,-0.046
1321,-0.043
1322,-0.045
1323,-0.052
1324,-0.053
1325,-0.051
1326,-0.054
1327,-0.054
1328,-0.045
1329,-0.046
1330,-0.054
1331,-0.063
1332,-0.065
1333,-0.064
1334,-0.064
1335,-0.065
1336,-0.069
1337,-0.073
1338,-0.060
1339,-0.052
1340,-0.058
1341,-0.046
1342,-0.047
1343,-0.052
1344,-0.049
1345,-0.051
1346,-0.052
1347,-0.056
1348,-0.062
1349,-0.068
1350,-0.063
1351,-0.070
1352,-0.083
1353,-0.086
1354,-0.093
1355,-0.091
1356,-0.084
1357,-0.079
1358,-0.074
1359,-0.066
1360,-0.068
1361,-0.071
1362,-0.061
1363,-0.058
1364,-0.065
1365,-0.065
1366,-0.062
1367,-0.066
1368,-0.069
1369,-0.072
1370,-0.069
1371,-0.064
1372,-0.059
1373,-0.064
1374,-0.064
1375,-0.056
1376,-0.054
1377,-0.051
1378,-0.054
1379,-0.062
1380,-0.065
1381,-0.058
1382,-0.053
1383,-0.058
1384,-0.060
1385,-0.054
1386,-0.045
1387,-0.043
1388,-0.036
1389,-0.032
1390,-0.042
1391,-0.030
1392,-0.021
1393,-0.022
1394,-0.011
1395,-0.013
1396,-0.022
1397,-0.020
1398,-0.026
1399,-0.029
1400,-0.019
1401,-0.021
1402,-0.024
1403,-0.030
1404,-0.035
1405,-0.041
1406,-0.050
1407,-0.059
1408,-0.068
1409,-0.062
1410,-0.051
1411,-0.050
1412,-0.048
1413,-0.045
1414,-0.045
1415,-0.036
1416,-0.034
1417,-0.032
1418,-0.035
1419,-0.042
1420,-0.048
1421,-0.052
1422,-0.049
1423,-0.045
1424,-0.035
1425,-0.035
1426,-0.035
1427,-0.026
1428,-0.027
1429,-0.021
1430,-0.019
1431,-0.028
1432,-0.028
1433,-0.029
1434,-0.026
1435,-0.021
1436,-0.017
1437,-0.011
1438,-0.012
1439,-0.014
1440,-0.022
1441,-0.024
1442,-0.022
1443,-0.022
1444,-0.025
1445,-0.031
1446,-0.033
1447,-0.036
1448,-0.035
1449,-0.036
1450,-0.042
1451,-0.049
1452,-0.051
1453,-0.052
1454,-0.056
1455,-0.061
1456,-0.061
1457,-0.065
1458,-0.071
1459,-0.072
1460,-0.077
1461,-0.077
1462,-0.074
1463,-0.073
1464,-0.072
1465,-0.071
1466,-0.072
1467,-0.069
1468,-0.066
1469,-0.066
1470,-0.065
1471,-0.064
1472,-0.066
1473,-0.068
1474,-0.065
1475,-0.069
1476,-0.072
1477,-0.072
1478,-0.072
1479,-0.071
1480,-0.072
1481,-0.071
1482,-0.070
1483,-0.070
1484,-0.071
1485,-0.071
1486,-0.071
1487,-0.071
1488,-0.070
1489,-0.072
1490,-0.073
1491,-0.071
1492,-0.073
1493,-0.077
1494,-0.081
1495,-0.094
1496,-0.105
1497,-0.112
1498,-0.126
1499,-0.133
1500,-0.147
1501,-0.160
1502,-0.168
1503,-0.175
1504,-0.177
1505,-0.181
1506,-0.181
1507,-0.172
1508,-0.155
1509,-0.142
1510,-0.128
1511,-0.112
1512,-0.087
1513,-0.065
1514,-0.050
1515,-0.039
1516,-0.029
1517,0.001
1518,0.018
1519,0.028
1520,0.043
1521,0.057
1522,0.079
1523,0.100
1524,0.117
1525,0.122
1526,0.143
1527,0.152
1528,0.155
1529,0.160
1530,0.124
1531,0.097
1532,0.042
1533,-0.008
1534,-0.026
1535,-0.051
1536,-0.092
1537,-0.129
1538,-0.146
1539,-0.158
1540,-0.150
1541,-0.158
1542,-0.185
1543,-0.250
1544,-0.338
1545,-0.413
1546,-0.481
1547,-0.528
1548,-0.546
1549,-0.556
1550,-0.575
1551,-0.590
1552,-0.596
1553,-0.605
1554,-0.602
1555,-0.578
1556,-0.569
1557,-0.551
1558,-0.521
1559,-0.496
1560,-0.461
1561,-0.417
1562,-0.378
1563,-0.335
1564,-0.294
1565,-0.252
1566,-0.218
1567,-0.191
1568,-0.161
1569,-0.143
1570,-0.129
1571,-0.113
1572,-0.100
1573,-0.088
1574,-0.074
1575,-0.060
1576,-0.058
1577,-0.056
1578,-0.048
1579,-0.039
1580,-0.033
1581,-0.029
1582,-0.022
1583,-0.017
1584,-0.010
1585,-0.004
1586,-0.002
1587,-0.003
1588,-0.002
1589,-0.002
1590,-0.003
1591,0.000
1592,0.002
1593,0.006
1594,0.009
1595,0.009
1596,0.011
1597,0.015
1598,0.018
1599,0.019
1600,0.022
1601,0.020
1602,0.019
1603,0.022
1604,0.022
1605,0.021
1606,0.018
1607,0.019
1608,0.019
1609,0.018
1610,0.021
1611,0.021
1612,0.024
1613,0.024
1614,0.028
1615,0.034
1616,0.032
1617,0.034
1618,0.035
1619,0.034
1620,0.036
1621,0.035
1622,0.036
1623,0.039
1624,0.036
1625,0.034
1626,0.035
1627,0.035
1628,0.035
1629,0.033
1630,0.029
1631,0.029
1632,0.025
1633,0.029
1634,0.034
1635,0.036
1636,0.037
1637,0.035
1638,0.036
1639,0.032
1640,0.032
1641,0.033
1642,0.035
1643,0.038
1644,0.041
1645,0.043
1646,0.041
1647,0.044
1648,0.044
1649,0.044
1650,0.044
1651,0.045
1652,0.046
1653,0.045
1654,0.045
1655,0.046
1656,0.044
1657,0.041
1658,0.042
1659,0.043
1660,0.042
1661,0.041
1662,0.042
1663,0.043
1664,0.043
1665,0.043
1666,0.041
1667,0.042
1668,0.044
1669,0.042
1670,0.042
1671,0.042
1672,0.044
1673,0.043
1674,0.043
1675,0.045
1676,0.042
1677,0.042
1678,0.044
1679,0.043
1680,0.042
1681,0.041
1682,0.041
1683,0.042
1684,0.042
1685,0.040
1686,0.041
1687,0.039
1688,0.038
1689,0.036
1690,0.036
1691,0.043
1692,0.044
1693,0.043
1694,0.043
1695,0.042
1696,0.041
1697,0.041
1698,0.037
1699,0.034
1700,0.032
1701,0.030
1702,0.028
1703,0.024
1704,0.023
1705,0.022
1706,0.021
1707,0.019
1708,0.017
1709,0.016
1710,0.017
1711,0.016
1712,0.015
1713,0.014
1714,0.013
1715,0.010
1716,0.009
1717,0.006
1718,0.004
1719,0.005
1720,0.004
1721,0.001
1722,0.001
1723,0.001
1724,-0.002
1725,-0.007
1726,-0.011
1727,-0.011
1728,-0.011
1729,-0.014
1730,-0.019
1731,-0.022
1732,-0.023
1733,-0.027
1734,-0.030
1735,-0.035
1736,-0.040
1737,-0.044
1738,-0.045
1739,-0.049
1740,-0.053
1741,-0.057
1742,-0.062
1743,-0.063
1744,-0.066
1745,-0.069
1746,-0.071
1747,-0.075
1748,-0.080
1749,-0.086
1750,-0.087
1751,-0.087
1752,-0.090
1753,-0.095
1754,-0.099
1755,-0.105
1756,-0.108
1757,-0.112
1758,-0.116
1759,-0.117
1760,-0.122
1761,-0.127
1762,-0.129
1763,-0.132
1764,-0.133
1765,-0.137
1766,-0.139
1767,-0.141
1768,-0.145
1769,-0.146
1770,-0.148
1771,-0.150
1772,-0.151
1773,-0.152
1774,-0.154
1775,-0.153
1776,-0.152
1777,-0.154
1778,-0.155
1779,-0.154
1780,-0.154
1781,-0.154
1782,-0.152
1783,-0.152
1784,-0.153
1785,-0.154
1786,-0.156
1787,-0.155
1788,-0.153
1789,-0.152
1790,-0.149
1791,-0.148
1792,-0.147
1793,-0.146
1794,-0.144
1795,-0.141
1796,-0.140
1797,-0.140
1798,-0.140
1799,-0.136
1800,-0.134
1801,-0.132
1802,-0.129
1803,-0.127
1804,-0.125
1805,-0.125
1806,-0.123
1807,-0.121
1808,-0.119
1809,-0.120
1810,-0.119
1811,-0.117
1812,-0.118
1813,-0.117
1814,-0.117
1815,-0.116
1816,-0.115
1817,-0.115
1818,-0.115
1819,-0.116
1820,-0.112
1821,-0.111
1822,-0.110
1823,-0.107
1824,-0.107
1825,-0.104
1826,-0.102
1827,-0.101
1828,-0.100
1829,-0.098
1830,-0.098
1831,-0.099
1832,-0.096
1833,-0.096
1834,-0.096
1835,-0.095
1836,-0.094
1837,-0.092
1838,-0.090
1839,-0.090
1840,-0.089
1841,-0.089
1842,-0.088
1843,-0.087
1844,-0.086
1845,-0.086
1846,-0.086
1847,-0.087
1848,-0.091
1849,-0.091
1850,-0.092
1851,-0.092
1852,-0.093
1853,-0.093
1854,-0.092
1855,-0.093
1856,-0.090
1857,-0.089
1858,-0.088
1859,-0.087
1860,-0.086
1861,-0.085
1862,-0.085
1863,-0.083
1864,-0.083
1865,-0.084
1866,-0.082
1867,-0.083
1868,-0.086
1869,-0.085
1870,-0.084
1871,-0.081
1872,-0.081
1873,-0.084
1874,-0.084
1875,-0.086
1876,-0.087
1877,-0.086
1878,-0.086
1879,-0.086
1880,-0.087
1881,-0.088
1882,-0.089
1883,-0.089
1884,-0.088
1885,-0.089
1886,-0.090
1887,-0.090
1888,-0.090
1889,-0.090
1890,-0.089
1891,-0.088
1892,-0.088
1893,-0.088
1894,-0.086
1895,-0.085
1896,-0.085
1897,-0.087
1898,-0.086
1899,-0.085
1900,-0.086
1901,-0.086
1902,-0.086
1903,-0.086
1904,-0.087
1905,-0.086
1906,-0.086
1907,-0.088
1908,-0.087
1909,-0.089
1910,-0.089
1911,-0.087
1912,-0.086
1913,-0.086
1914,-0.085
1915,-0.087
1916,-0.086
1917,-0.085
1918,-0.086
1919,-0.085
1920,-0.086
1921,-0.087
1922,-0.087
1923,-0.087
1924,-0.089
1925,-0.090
1926,-0.087
1927,-0.087
1928,-0.087
1929,-0.086
1930,-0.087
1931,-0.088
1932,-0.088
1933,-0.087
1934,-0.085
1935,-0.085
1936,-0.086
1937,-0.086
1938,-0.087
1939,-0.089
1940,-0.089
1941,-0.091
1942,-0.092
1943,-0.090
1944,-0.090
1945,-0.090
1946,-0.090
1947,-0.091
1948,-0.091
1949,-0.088
1950,-0.088
1951,-0.088
1952,-0.089
1953,-0.090
1954,-0.085
1955,-0.085
1956,-0.084
1957,-0.084
1958,-0.083
1959,-0.083
1960,-0.083
1961,-0.082
1962,-0.083
1963,-0.082
1964,-0.084
1965,-0.083
1966,-0.082
1967,-0.084
1968,-0.083
1969,-0.083
1970,-0.084
1971,-0.086
1972,-0.086
1973,-0.086
1974,-0.087
1975,-0.086
1976,-0.085
1977,-0.085
1978,-0.083
1979,-0.085
1980,-0.087
1981,-0.086
1982,-0.086
1983,-0.086
1984,-0.085
1985,-0.085
1986,-0.084
1987,-0.083
1988,-0.082
1989,-0.082
1990,-0.081
1991,-0.080
1992,-0.081
1993,-0.082
1994,-0.084
1995,-0.084
1996,-0.084
1997,-0.085
1998,-0.084
1999,-0.083
2000,-0.082
2001,-0.083
2002,-0.085
2003,-0.087
2004,-0.088
2005,-0.089
2006,-0.088
2007,-0.088
2008,-0.090
2009,-0.090
2010,-0.090
2011,-0.091
2012,-0.090
2013,-0.089
2014,-0.089
2015,-0.088
2016,-0.087
2017,-0.087
2018,-0.087
2019,-0.087
2020,-0.086
2021,-0.085
2022,-0.084
2023,-0.082
2024,-0.083
2025,-0.083
2026,-0.083
2027,-0.082
2028,-0.081
2029,-0.082
2030,-0.081
2031,-0.082
2032,-0.084
2033,-0.084
2034,-0.085
2035,-0.083
2036,-0.083
2037,-0.084
2038,-0.082
2039,-0.080
2040,-0.076
2041,-0.076
2042,-0.079
2043,-0.076
2044,-0.071
2045,-0.071
2046,-0.071
2047,-0.071
2048,-0.071
2049,-0.070
2050,-0.070
2051,-0.070
2052,-0.068
2053,-0.067
2054,-0.066
2055,-0.065
2056,-0.061
2057,-0.059
2058,-0.057
2059,-0.054
2060,-0.055
2061,-0.054
2062,-0.057
2063,-0.057
2064,-0.057
2065,-0.060
2066,-0.064
2067,-0.067
2068,-0.070
2069,-0.073
2070,-0.075
2071,-0.076
2072,-0.072
2073,-0.068
2074,-0.066
2075,-0.064
2076,-0.065
2077,-0.064
2078,-0.057
2079,-0.054
2080,-0.054
2081,-0.053
2082,-0.052
2083,-0.055
2084,-0.062
2085,-0.065
2086,-0.065
2087,-0.062
2088,-0.059
2089,-0.059
2090,-0.060
2091,-0.060
2092,-0.056
2093,-0.053
2094,-0.051
2095,-0.049
2096,-0.048
2097,-0.045
2098,-0.043
2099,-0.039
2100,-0.038
2101,-0.037
2102,-0.038
2103,-0.040
2104,-0.040
2105,-0.041
2106,-0.042
2107,-0.043
2108,-0.042
2109,-0.038
2110,-0.039
2111,-0.043
2112,-0.047
2113,-0.048
2114,-0.051
2115,-0.057
2116,-0.064
2117,-0.069
2118,-0.071
2119,-0.075
2120,-0.077
2121,-0.080
2122,-0.084
2123,-0.085
2124,-0.088
2125,-0.092
2126,-0.096
2127,-0.098
2128,-0.097
2129,-0.097
2130,-0.097
2131,-0.096
2132,-0.098
2133,-0.096
2134,-0.097
2135,-0.097
2136,-0.097
2137,-0.098
2138,-0.097
2139,-0.098
2140,-0.098
2141,-0.100
2142,-0.098
2143,-0.097
2144,-0.098
2145,-0.099
2146,-0.098
2147,-0.097
2148,-0.098
2149,-0.099
2150,-0.096
2151,-0.090
2152,-0.092
2153,-0.093
2154,-0.093
2155,-0.096
2156,-0.097
2157,-0.100
2158,-0.103
2159,-0.117
2160,-0.130
2161,-0.140
2162,-0.148
2163,-0.159
2164,-0.173
2165,-0.188
2166,-0.198
2167,-0.201
2168,-0.207
2169,-0.205
2170,-0.195
2171,-0.177
2172,-0.158
2173,-0.144
2174,-0.127
2175,-0.106
2176,-0.083
2177,-0.066
2178,-0.054
2179,-0.043
2180,-0.030
2181,-0.009
2182,0.009
2183,0.017
2184,0.031
2185,0.051
2186,0.074
2187,0.096
2188,0.114
2189,0.130
2190,0.155
2191,0.181
2192,0.185
2193,0.178
2194,0.155
2195,0.113
2196,0.070
2197,0.029
2198,0.001
2199,-0.027
2200,-0.073
2201,-0.108
2202,-0.124
2203,-0.154
2204,-0.181
2205,-0.191
2206,-0.224
2207,-0.303
2208,-0.382
2209,-0.459
2210,-0.514
2211,-0.544
2212,-0.568
2213,-0.580
2214,-0.593
2215,-0.594
2216,-0.585
2217,-0.584
2218,-0.577
2219,-0.555
2220,-0.539
2221,-0.511
2222,-0.471
2223,-0.432
2224,-0.387
2225,-0.344
2226,-0.305
2227,-0.272
2228,-0.236
2229,-0.202
2230,-0.176
2231,-0.155
2232,-0.139
2233,-0.128
2234,-0.113
2235,-0.100
2236,-0.093
2237,-0.086
2238,-0.080
2239,-0.072
2240,-0.068
2241,-0.061
2242,-0.054
2243,-0.049
2244,-0.042
2245,-0.037
2246,-0.034
2247,-0.031
2248,-0.029
2249,-0.026
2250,-0.025
2251,-0.021
2252,-0.022
2253,-0.021
2254,-0.018
2255,-0.017
2256,-0.015
2257,-0.014
2258,-0.012
2259,-0.009
2260,-0.007
2261,-0.008
2262,-0.009
2263,-0.006
2264,-0.004
2265,-0.003
2266,-0.003
2267,-0.003
2268,-0.003
2269,-0.002
2270,-0.003
2271,-0.004
2272,-0.002
2273,-0.001
2274,-0.001
2275,-0.001
2276,0.001
2277,0.001
2278,0.002
2279,0.004
2280,0.005
2281,0.005
2282,0.006
2283,0.007
2284,0.007
2285,0.009
2286,0.008
2287,0.010
2288,0.011
2289,0.011
2290,0.011
2291,0.011
2292,0.012
2293,0.013
2294,0.015
2295,0.015
2296,0.014
2297,0.013
2298,0.015
2299,0.013
2300,0.011
2301,0.013
2302,0.013
2303,0.014
2304,0.015
2305,0.015
2306,0.015
2307,0.014
2308,0.013
2309,0.013
2310,0.015
2311,0.018
2312,0.017
2313,0.015
2314,0.015
2315,0.015
2316,0.017
2317,0.018
2318,0.018
2319,0.018
2320,0.018
2321,0.017
2322,0.018
2323,0.018
2324,0.018
2325,0.019
2326,0.021
2327,0.022
2328,0.022
2329,0.019
2330,0.019
2331,0.020
2332,0.021
2333,0.021
2334,0.021
2335,0.021
2336,0.019
2337,0.018
2338,0.018
2339,0.016
2340,0.018
2341,0.019
2342,0.018
2343,0.018
2344,0.019
2345,0.019
2346,0.018
2347,0.018
2348,0.017
2349,0.017
2350,0.017
2351,0.015
2352,0.017
2353,0.018
2354,0.017
2355,0.017
2356,0.017
2357,0.015
2358,0.017
2359,0.017
2360,0.017
2361,0.016
2362,0.015
2363,0.015
2364,0.015
2365,0.013
2366,0.011
2367,0.009
2368,0.009
2369,0.011
2370,0.009
2371,0.007
2372,0.005
2373,0.004
2374,0.004
2375,0.002
2376,0.002
2377,0.000
2378,-0.004
2379,-0.006
2380,-0.009
2381,-0.009
2382,-0.011
2383,-0.013
2384,-0.013
2385,-0.015
2386,-0.019
2387,-0.021
2388,-0.023
2389,-0.027
2390,-0.030
2391,-0.033
2392,-0.035
2393,-0.038
2394,-0.042
2395,-0.043
2396,-0.046
2397,-0.050
2398,-0.052
2399,-0.057
2400,-0.059
2401,-0.060
2402,-0.066
2403,-0.070
2404,-0.073
2405,-0.076
2406,-0.079
2407,-0.082
2408,-0.086
2409,-0.090
2410,-0.093
2411,-0.097
2412,-0.100
2413,-0.103
2414,-0.107
2415,-0.111
2416,-0.115
2417,-0.117
2418,-0.119
2419,-0.121
2420,-0.124
2421,-0.127
2422,-0.129
2423,-0.133
2424,-0.135
2425,-0.138
2426,-0.139
2427,-0.141
2428,-0.143
2429,-0.145
2430,-0.145
2431,-0.147
2432,-0.150
2433,-0.151
2434,-0.152
2435,-0.152
2436,-0.151
2437,-0.152
2438,-0.154
2439,-0.154
2440,-0.155
2441,-0.158
2442,-0.157
2443,-0.153
2444,-0.152
2445,-0.155
2446,-0.156
2447,-0.153
2448,-0.153
2449,-0.155
2450,-0.154
2451,-0.152
2452,-0.151
2453,-0.150
2454,-0.149
2455,-0.149
2456,-0.147
2457,-0.147
2458,-0.146
2459,-0.146
2460,-0.147
2461,-0.144
2462,-0.143
2463,-0.142
2464,-0.140
2465,-0.138
2466,-0.137
2467,-0.137
2468,-0.134
2469,-0.131
2470,-0.131
2471,-0.129
2472,-0.128
2473,-0.127
2474,-0.123
2475,-0.121
2476,-0.120
2477,-0.120
2478,-0.118
2479,-0.116
2480,-0.115
2481,-0.114
2482,-0.111
2483,-0.110
2484,-0.109
2485,-0.106
2486,-0.107
2487,-0.105
2488,-0.102
2489,-0.102
2490,-0.100
2491,-0.100
2492,-0.099
2493,-0.099
2494,-0.097
2495,-0.096
2496,-0.095
2497,-0.093
2498,-0.093
2499,-0.093
2500,-0.094
2501,-0.092
2502,-0.092
2503,-0.091
2504,-0.090
2505,-0.090
2506,-0.090
2507,-0.088
2508,-0.089
2509,-0.089
2510,-0.088
2511,-0.088
2512,-0.087
2513,-0.088
2514,-0.089
2515,-0.088
2516,-0.087
2517,-0.086
2518,-0.086
2519,-0.086
2520,-0.087
2521,-0.089
2522,-0.091
2523,-0.086
2524,-0.085
2525,-0.084
2526,-0.083
2527,-0.085
2528,-0.086
2529,-0.086
2530,-0.082
2531,-0.084
2532,-0.085
2533,-0.084
2534,-0.085
2535,-0.084
2536,-0.085
2537,-0.085
2538,-0.085
2539,-0.086
2540,-0.086
2541,-0.086
2542,-0.086
2543,-0.087
2544,-0.090
2545,-0.090
2546,-0.087
2547,-0.087
2548,-0.087
2549,-0.088
2550,-0.089
2551,-0.087
2552,-0.088
2553,-0.088
2554,-0.089
2555,-0.090
2556,-0.088
2557,-0.087
2558,-0.088
2559,-0.087
2560,-0.087
2561,-0.089
2562,-0.090
2563,-0.090
2564,-0.087
2565,-0.087
2566,-0.089
2567,-0.092
2568,-0.092
2569,-0.092
2570,-0.093
2571,-0.093
2572,-0.094
2573,-0.095
2574,-0.093
2575,-0.095
2576,-0.096
2577,-0.096
2578,-0.095
2579,-0.094
2580,-0.095
2581,-0.096
2582,-0.097
2583,-0.095
2584,-0.093
2585,-0.095
2586,-0.095
2587,-0.093
2588,-0.094
2589,-0.096
2590,-0.098
2591,-0.099
2592,-0.096
2593,-0.096
2594,-0.097
2595,-0.097
2596,-0.097
2597,-0.094
2598,-0.095
2599,-0.095
2600,-0.095
2601,-0.096
2602,-0.097
2603,-0.095
2604,-0.095
2605,-0.096
2606,-0.096
2607,-0.096
2608,-0.095
2609,-0.093
2610,-0.093
2611,-0.093
2612,-0.092
2613,-0.093
2614,-0.094
2615,-0.093
2616,-0.094
2617,-0.095
2618,-0.095
2619,-0.094
2620,-0.094
2621,-0.092
2622,-0.092
2623,-0.093
2624,-0.094
2625,-0.093
2626,-0.092
2627,-0.093
2628,-0.094
2629,-0.094
2630,-0.094
2631,-0.093
2632,-0.094
2633,-0.095
2634,-0.093
2635,-0.093
2636,-0.093
2637,-0.091
2638,-0.091
2639,-0.092
2640,-0.092
2641,-0.092
2642,-0.092
2643,-0.093
2644,-0.093
2645,-0.093
2646,-0.092
2647,-0.092
2648,-0.093
2649,-0.092
2650,-0.089
2651,-0.091
2652,-0.093
2653,-0.093
2654,-0.093
2655,-0.092
2656,-0.092
2657,-0.091
2658,-0.092
2659,-0.090
2660,-0.090
2661,-0.091
2662,-0.091
2663,-0.090
2664,-0.088
2665,-0.088
2666,-0.090
2667,-0.091
2668,-0.090
2669,-0.089
2670,-0.089
2671,-0.089
2672,-0.089
2673,-0.089
2674,-0.090
2675,-0.090
2676,-0.088
2677,-0.086
2678,-0.086
2679,-0.083
2680,-0.083
2681,-0.087
2682,-0.086
2683,-0.086
2684,-0.086
2685,-0.087
2686,-0.089
2687,-0.089
2688,-0.088
2689,-0.087
2690,-0.085
2691,-0.084
2692,-0.083
2693,-0.081
2694,-0.082
2695,-0.081
2696,-0.079
2697,-0.078
2698,-0.075
2699,-0.075
2700,-0.075
2701,-0.072
2702,-0.071
2703,-0.070
2704,-0.071
2705,-0.069
2706,-0.069
2707,-0.068
2708,-0.066
2709,-0.064
2710,-0.065
2711,-0.064
2712,-0.061
2713,-0.060
2714,-0.059
2715,-0.058
2716,-0.057
2717,-0.058
2718,-0.058
2719,-0.059
2720,-0.063
2721,-0.067
2722,-0.071
2723,-0.074
2724,-0.078
2725,-0.079
2726,-0.080
2727,-0.077
2728,-0.074
2729,-0.074
2730,-0.071
2731,-0.072
2732,-0.070
2733,-0.065
2734,-0.064
2735,-0.064
2736,-0.065
2737,-0.065
2738,-0.068
2739,-0.069
2740,-0.068
2741,-0.069
2742,-0.064
2743,-0.060
2744,-0.060
2745,-0.061
2746,-0.058
2747,-0.057
2748,-0.053
2749,-0.051
2750,-0.052
2751,-0.049
2752,-0.048
2753,-0.046
2754,-0.042
2755,-0.041
2756,-0.041
2757,-0.041
2758,-0.042
2759,-0.043
2760,-0.045
2761,-0.046
2762,-0.047
2763,-0.046
2764,-0.044
2765,-0.044
2766,-0.048
2767,-0.050
2768,-0.051
2769,-0.055
2770,-0.059
2771,-0.066
2772,-0.071
2773,-0.072
2774,-0.080
2775,-0.083
2776,-0.083
2777,-0.086
2778,-0.089
2779,-0.096
2780,-0.100
2781,-0.103
2782,-0.103
2783,-0.101
2784,-0.102
2785,-0.102
2786,-0.101
2787,-0.102
2788,-0.102
2789,-0.104
2790,-0.103
2791,-0.102
2792,-0.100
2793,-0.101
2794,-0.102
2795,-0.100
2796,-0.101
2797,-0.100
2798,-0.099
2799,-0.099
2800,-0.098
2801,-0.096
2802,-0.096
2803,-0.097
2804,-0.097
2805,-0.097
2806,-0.092
2807,-0.095
2808,-0.098
2809,-0.099
2810,-0.100
2811,-0.101
2812,-0.105
2813,-0.107
2814,-0.117
2815,-0.131
2816,-0.139
2817,-0.147
2818,-0.159
2819,-0.172
2820,-0.182
2821,-0.194
2822,-0.197
2823,-0.200
2824,-0.199
2825,-0.189
2826,-0.174
2827,-0.160
2828,-0.142
2829,-0.124
2830,-0.105
2831,-0.083
2832,-0.065
2833,-0.055
2834,-0.044
2835,-0.028
2836,-0.007
2837,0.010
2838,0.018
2839,0.033
2840,0.055
2841,0.080
2842,0.105
2843,0.124
2844,0.142
2845,0.167
2846,0.190
2847,0.190
2848,0.180
2849,0.154
2850,0.108
2851,0.059
2852,0.015
2853,-0.013
2854,-0.044
2855,-0.097
2856,-0.131
2857,-0.148
2858,-0.181
2859,-0.207
2860,-0.217
2861,-0.251
2862,-0.333
2863,-0.414
2864,-0.490
2865,-0.545
2866,-0.572
2867,-0.594
2868,-0.605
2869,-0.617
2870,-0.617
2871,-0.610
2872,-0.611
2873,-0.600
2874,-0.575
2875,-0.557
2876,-0.527
2877,-0.485
2878,-0.446
2879,-0.398
2880,-0.351
2881,-0.313
2882,-0.275
2883,-0.237
2884,-0.203
2885,-0.178
2886,-0.160
2887,-0.144
2888,-0.129
2889,-0.114
2890,-0.105
2891,-0.099
2892,-0.091
2893,-0.085
2894,-0.077
2895,-0.071
2896,-0.066
2897,-0.059
2898,-0.053
2899,-0.048
2900,-0.043
2901,-0.040
2902,-0.037
2903,-0.034
2904,-0.030
2905,-0.032
2906,-0.032
2907,-0.029
2908,-0.028
2909,-0.027
2910,-0.023
2911,-0.023
2912,-0.022
2913,-0.021
2914,-0.021
2915,-0.016
2916,-0.016
2917,-0.019
2918,-0.016
2919,-0.013
2920,-0.011
2921,-0.012
2922,-0.011
2923,-0.011
2924,-0.010
2925,-0.008
2926,-0.008
2927,-0.008
2928,-0.007
2929,-0.006
2930,-0.006
2931,-0.005
2932,-0.004
2933,-0.005
2934,-0.007
2935,-0.006
2936,-0.004
2937,-0.004
2938,-0.003
2939,-0.004
2940,-0.004
2941,-0.002
2942,-0.004
2943,-0.002
2944,-0.001
2945,-0.002
2946,-0.002
2947,-0.002
2948,-0.002
2949,-0.001
2950,0.001
2951,0.001
2952,0.002
2953,0.001
2954,0.000
2955,-0.001
2956,0.001
2957,0.001
2958,0.002
2959,0.004
2960,0.005
2961,0.007
2962,0.004
2963,0.001
2964,0.003
2965,0.002
2966,0.003
2967,0.005
2968,0.005
2969,0.005
2970,0.006
2971,0.005
2972,0.005
2973,0.006
2974,0.006
2975,0.005
2976,0.004
2977,0.006
2978,0.007
2979,0.007
2980,0.006
2981,0.007
2982,0.007
2983,0.007
2984,0.008
2985,0.008
2986,0.010
2987,0.009
2988,0.007
2989,0.009
2990,0.007
2991,0.006
2992,0.007
2993,0.009
2994,0.009
2995,0.009
2996,0.010
2997,0.009
2998,0.009
2999,0.009
3000,0.010
3001,0.009
3002,0.009
3003,0.007
3004,0.005
3005,0.005
3006,0.006
3007,0.006
3008,0.004
3009,0.003
3010,0.004
3011,0.004
3012,0.004
3013,0.003
3014,0.001
3015,0.001
3016,0.003
3017,0.002
3018,0.001
3019,0.000
3020,-0.001
3021,-0.003
3022,-0.004
3023,-0.005
3024,-0.006
3025,-0.007
3026,-0.008
3027,-0.009
3028,-0.009
3029,-0.011
3030,-0.015
3031,-0.018
3032,-0.019
3033,-0.022
3034,-0.025
3035,-0.025
3036,-0.026
3037,-0.029
3038,-0.032
3039,-0.033
3040,-0.034
3041,-0.036
3042,-0.039
3043,-0.041
3044,-0.043
3045,-0.046
3046,-0.051
3047,-0.056
3048,-0.059
3049,-0.064
3050,-0.063
3051,-0.064
3052,-0.071
3053,-0.073
3054,-0.074
3055,-0.080
3056,-0.083
3057,-0.085
3058,-0.087
3059,-0.091
3060,-0.097
3061,-0.100
3062,-0.102
3063,-0.106
3064,-0.108
3065,-0.113
3066,-0.117
3067,-0.118
3068,-0.122
3069,-0.126
3070,-0.129
3071,-0.133
3072,-0.134
3073,-0.136
3074,-0.141
3075,-0.145
3076,-0.146
3077,-0.149
3078,-0.151
3079,-0.151
3080,-0.154
3081,-0.158
3082,-0.162
3083,-0.166
3084,-0.165
3085,-0.166
3086,-0.170
3087,-0.171
3088,-0.173
3089,-0.172
3090,-0.171
3091,-0.171
3092,-0.172
3093,-0.173
3094,-0.175
3095,-0.177
3096,-0.175
3097,-0.175
3098,-0.176
3099,-0.176
3100,-0.174
3101,-0.177
3102,-0.177
3103,-0.175
3104,-0.174
3105,-0.174
3106,-0.175
3107,-0.173
3108,-0.171
3109,-0.172
3110,-0.172
3111,-0.171
3112,-0.170
3113,-0.171
3114,-0.169
3115,-0.169
3116,-0.172
3117,-0.171
3118,-0.168
3119,-0.163
3120,-0.161
3121,-0.159
3122,-0.157
3123,-0.158
3124,-0.155
3125,-0.148
3126,-0.142
3127,-0.141
3128,-0.142
3129,-0.141
3130,-0.138
3131,-0.135
3132,-0.133
3133,-0.133
3134,-0.131
3135,-0.127
3136,-0.128
3137,-0.124
3138,-0.122
3139,-0.122
3140,-0.123
3141,-0.126
3142,-0.121
3143,-0.121
3144,-0.120
3145,-0.120
3146,-0.122
3147,-0.118
3148,-0.119
3149,-0.120
3150,-0.117
3151,-0.117
3152,-0.121
3153,-0.117
3154,-0.115
3155,-0.114
3156,-0.111
3157,-0.109
3158,-0.103
3159,-0.096
3160,-0.097
3161,-0.097
3162,-0.097
3163,-0.095
3164,-0.095
3165,-0.092
3166,-0.087
3167,-0.087
3168,-0.087
3169,-0.088
3170,-0.091
3171,-0.097
3172,-0.096
3173,-0.098
3174,-0.102
3175,-0.105
3176,-0.108
3177,-0.109
3178,-0.110
3179,-0.106
3180,-0.104
3181,-0.102
3182,-0.103
3183,-0.112
3184,-0.110
3185,-0.108
3186,-0.114
3187,-0.116
3188,-0.112
3189,-0.108
3190,-0.114
3191,-0.119
3192,-0.118
3193,-0.117
3194,-0.122
3195,-0.124
3196,-0.121
3197,-0.121
3198,-0.120
3199,-0.121
3200,-0.126
3201,-0.130
3202,-0.129
3203,-0.132
3204,-0.132
3205,-0.127
3206,-0.125
3207,-0.131
3208,-0.135
3209,-0.134
3210,-0.131
3211,-0.129
3212,-0.126
3213,-0.123
3214,-0.119
3215,-0.113
3216,-0.115
3217,-0.117
3218,-0.114
3219,-0.115
3220,-0.118
3221,-0.118
3222,-0.115
3223,-0.116
3224,-0.122
3225,-0.117
3226,-0.115
3227,-0.115
3228,-0.108
3229,-0.107
3230,-0.109
3231,-0.111
3232,-0.110
3233,-0.113
3234,-0.116
3235,-0.117
3236,-0.114
3237,-0.110
3238,-0.112
3239,-0.112
3240,-0.112
3241,-0.115
3242,-0.120
3243,-0.121
3244,-0.121
3245,-0.122
3246,-0.127
3247,-0.130
3248,-0.129
3249,-0.134
3250,-0.136
3251,-0.129
3252,-0.135
3253,-0.140
3254,-0.142
3255,-0.138
3256,-0.129
3257,-0.131
3258,-0.128
3259,-0.132
3260,-0.133
3261,-0.132
3262,-0.135
3263,-0.129
3264,-0.130
3265,-0.127
3266,-0.126
3267,-0.126
3268,-0.124
3269,-0.124
3270,-0.120
3271,-0.119
3272,-0.113
3273,-0.110
3274,-0.107
3275,-0.104
3276,-0.111
3277,-0.106
3278,-0.104
3279,-0.113
3280,-0.116
3281,-0.114
3282,-0.113
3283,-0.119
3284,-0.116
3285,-0.101
3286,-0.104
3287,-0.106
3288,-0.106
3289,-0.118
3290,-0.121
3291,-0.115
3292,-0.113
3293,-0.115
3294,-0.120
3295,-0.127
3296,-0.124
3297,-0.118
3298,-0.117
3299,-0.115
3300,-0.122
3301,-0.125
3302,-0.119
3303,-0.115
3304,-0.113
3305,-0.113
3306,-0.109
3307,-0.108
3308,-0.110
3309,-0.116
3310,-0.121
3311,-0.121
3312,-0.117
3313,-0.116
3314,-0.126
3315,-0.126
3316,-0.123
3317,-0.122
3318,-0.121
3319,-0.123
3320,-0.127
3321,-0.129
3322,-0.132
3323,-0.140
3324,-0.141
3325,-0.136
3326,-0.133
3327,-0.132
3328,-0.124
3329,-0.120
3330,-0.120
3331,-0.113
3332,-0.115
3333,-0.116
3334,-0.114
3335,-0.112
3336,-0.116
3337,-0.115
3338,-0.110
3339,-0.109
3340,-0.104
3341,-0.106
3342,-0.102
3343,-0.101
3344,-0.107
3345,-0.110
3346,-0.117
3347,-0.112
3348,-0.109
3349,-0.118
3350,-0.119
3351,-0.110
3352,-0.105
3353,-0.106
3354,-0.105
3355,-0.108
3356,-0.117
3357,-0.112
3358,-0.099
3359,-0.102
3360,-0.102
3361,-0.092
3362,-0.097
3363,-0.094
3364,-0.090
3365,-0.090
3366,-0.080
3367,-0.077
3368,-0.079
3369,-0.082
3370,-0.086
3371,-0.088
3372,-0.089
3373,-0.090
3374,-0.089
3375,-0.083
3376,-0.082
3377,-0.080
3378,-0.086
3379,-0.089
3380,-0.088
3381,-0.091
3382,-0.096
3383,-0.101
3384,-0.096
3385,-0.102
3386,-0.105
3387,-0.098
3388,-0.094
3389,-0.088
3390,-0.083
3391,-0.089
3392,-0.086
3393,-0.083
3394,-0.089
3395,-0.087
3396,-0.097
3397,-0.093
3398,-0.092
3399,-0.097
3400,-0.089
3401,-0.107
3402,-0.105
3403,-0.089
3404,-0.080
3405,-0.073
3406,-0.075
3407,-0.069
3408,-0.072
3409,-0.069
3410,-0.059
3411,-0.061
3412,-0.059
3413,-0.062
3414,-0.069
3415,-0.073
3416,-0.070
3417,-0.068
3418,-0.073
3419,-0.076
3420,-0.075
3421,-0.078
3422,-0.079
3423,-0.077
3424,-0.080
3425,-0.082
3426,-0.094
3427,-0.106
3428,-0.115
3429,-0.118
3430,-0.120
3431,-0.117
3432,-0.118
3433,-0.132
3434,-0.131
3435,-0.135
3436,-0.133
3437,-0.129
3438,-0.130
3439,-0.113
3440,-0.111
3441,-0.115
3442,-0.116
3443,-0.117
3444,-0.117
3445,-0.121
3446,-0.119
3447,-0.128
3448,-0.126
3449,-0.119
3450,-0.126
3451,-0.120
3452,-0.117
3453,-0.120
3454,-0.119
3455,-0.123
3456,-0.127
3457,-0.129
3458,-0.128
3459,-0.124
3460,-0.124
3461,-0.126
3462,-0.126
3463,-0.124
3464,-0.128
3465,-0.133
3466,-0.138
3467,-0.133
3468,-0.134
3469,-0.140
3470,-0.141
3471,-0.150
3472,-0.159
3473,-0.168
3474,-0.174
3475,-0.180
3476,-0.196
3477,-0.206
3478,-0.213
3479,-0.214
3480,-0.205
3481,-0.206
3482,-0.194
3483,-0.167
3484,-0.152
3485,-0.134
3486,-0.119
3487,-0.101
3488,-0.080
3489,-0.070
3490,-0.066
3491,-0.048
3492,-0.023
3493,0.002
3494,0.026
3495,0.041
3496,0.061
3497,0.088
3498,0.121
3499,0.147
3500,0.166
3501,0.185
3502,0.204
3503,0.204
3504,0.183
3505,0.153
3506,0.112
3507,0.052
3508,-0.008
3509,-0.041
3510,-0.060
3511,-0.107
3512,-0.152
3513,-0.170
3514,-0.181
3515,-0.196
3516,-0.201
3517,-0.222
3518,-0.291
3519,-0.367
3520,-0.445
3521,-0.512
3522,-0.552
3523,-0.578
3524,-0.588
3525,-0.596
3526,-0.605
3527,-0.614
3528,-0.615
3529,-0.610
3530,-0.604
3531,-0.594
3532,-0.577
3533,-0.552
3534,-0.530
3535,-0.492
3536,-0.452
3537,-0.423
3538,-0.384
3539,-0.340
3540,-0.301
3541,-0.267
3542,-0.234
3543,-0.207
3544,-0.196
3545,-0.178
3546,-0.158
3547,-0.145
3548,-0.136
3549,-0.129
3550,-0.130
3551,-0.117
3552,-0.103
3553,-0.105
3554,-0.103
3555,-0.100
3556,-0.090
3557,-0.089
3558,-0.090
3559,-0.081
3560,-0.071
3561,-0.065
3562,-0.059
3563,-0.049
3564,-0.040
3565,-0.036
3566,-0.039
3567,-0.049
3568,-0.048
3569,-0.043
3570,-0.051
3571,-0.049
3572,-0.039
3573,-0.040
3574,-0.043
3575,-0.047
3576,-0.050
3577,-0.042
3578,-0.039
3579,-0.035
3580,-0.029
3581,-0.026
3582,-0.024
3583,-0.021
3584,-0.020
3585,-0.018
3586,-0.018
3587,-0.022
3588,-0.023
3589,-0.028
3590,-0.023
3591,-0.024
3592,-0.029
3593,-0.027
3594,-0.034
3595,-0.029
3596,-0.033
3597,-0.043
3598,-0.039
3599,-0.034
3600,-0.033
3601,-0.029
3602,-0.034
3603,-0.033
3604,-0.029
3605,-0.029
3606,-0.023
3607,-0.022
3608,-0.034
3609,-0.034
3610,-0.025
3611,-0.027
3612,-0.029
3613,-0.025
3614,-0.029
3615,-0.032
3616,-0.034
3617,-0.042
3618,-0.030
3619,-0.028
3620,-0.032
3621,-0.025
3622,-0.029
3623,-0.026
3624,-0.020
3625,-0.014
3626,-0.006
3627,-0.002
3628,0.003
3629,0.006
3630,0.006
3631,0.007
3632,0.015
3633,0.013
3634,0.008
3635,0.007
3636,0.009
3637,0.011
3638,0.004
3639,-0.005
3640,-0.003
3641,-0.013
3642,-0.021
3643,-0.021
3644,-0.019
3645,-0.019
3646,-0.032
3647,-0.033
3648,-0.028
3649,-0.018
3650,-0.012
3651,-0.015
3652,-0.015
3653,-0.025
3654,-0.023
3655,-0.021
3656,-0.020
3657,-0.017
3658,-0.025
3659,-0.025
3660,-0.028
3661,-0.028
3662,-0.025
3663,-0.035
3664,-0.032
3665,-0.030
3666,-0.036
3667,-0.038
3668,-0.037
3669,-0.033
3670,-0.034
3671,-0.030
3672,-0.035
3673,-0.029
3674,-0.017
3675,-0.021
3676,-0.020
3677,-0.016
3678,-0.015
3679,-0.015
3680,-0.011
3681,-0.013
3682,-0.018
3683,-0.009
3684,-0.013
3685,-0.021
3686,-0.019
3687,-0.025
3688,-0.029
3689,-0.028
3690,-0.038
3691,-0.043
3692,-0.038
3693,-0.042
3694,-0.040
3695,-0.036
3696,-0.041
3697,-0.035
3698,-0.035
3699,-0.053
3700,-0.058
3701,-0.056
3702,-0.056
3703,-0.054
3704,-0.065
3705,-0.067
3706,-0.070
3707,-0.080
3708,-0.079
3709,-0.084
3710,-0.093
3711,-0.096
3712,-0.096
3713,-0.106
3714,-0.113
3715,-0.120
3716,-0.122
3717,-0.121
3718,-0.121
3719,-0.118
3720,-0.126
3721,-0.137
3722,-0.141
3723,-0.141
3724,-0.148
3725,-0.156
3726,-0.159
3727,-0.158
3728,-0.161
3729,-0.164
3730,-0.165
3731,-0.170
3732,-0.174
3733,-0.172
3734,-0.173
3735,-0.177
3736,-0.178
3737,-0.185
3738,-0.193
3739,-0.186
3740,-0.195
3741,-0.197
3742,-0.182
3743,-0.192
3744,-0.195
3745,-0.194
3746,-0.194
3747,-0.204
3748,-0.205
3749,-0.200
3750,-0.206
3751,-0.201
3752,-0.194
3753,-0.184
3754,-0.192
3755,-0.204
3756,-0.200
3757,-0.193
3758,-0.198
3759,-0.199
3760,-0.191
3761,-0.196
3762,-0.189
3763,-0.182
3764,-0.187
3765,-0.178
3766,-0.178
3767,-0.180
3768,-0.182
3769,-0.186
3770,-0.186
3771,-0.181
3772,-0.176
3773,-0.194
3774,-0.191
3775,-0.176
3776,-0.178
3777,-0.179
3778,-0.188
3779,-0.183
3780,-0.181
3781,-0.187
3782,-0.177
3783,-0.179
3784,-0.185
3785,-0.180
3786,-0.170
3787,-0.166
3788,-0.163
3789,-0.162
3790,-0.169
3791,-0.174
3792,-0.176
3793,-0.169
3794,-0.163
3795,-0.161
3796,-0.159
3797,-0.160
3798,-0.154
3799,-0.157
3800,-0.155
3801,-0.146
3802,-0.155
3803,-0.158
3804,-0.154
3805,-0.150
3806,-0.147
3807,-0.147
3808,-0.148
3809,-0.145
3810,-0.141
3811,-0.149
3812,-0.147
3813,-0.142
3814,-0.153
3815,-0.153
3816,-0.143
3817,-0.141
3818,-0.143
3819,-0.141
3820,-0.142
3821,-0.137
3822,-0.142
3823,-0.146
3824,-0.141
3825,-0.150
3826,-0.144
3827,-0.143
3828,-0.147
3829,-0.147
3830,-0.148
3831,-0.141
3832,-0.138
3833,-0.138
3834,-0.135
3835,-0.126
3836,-0.116
3837,-0.106
3838,-0.110
3839,-0.116
3840,-0.115
3841,-0.110
3842,-0.116
3843,-0.124
3844,-0.113
3845,-0.116
3846,-0.117
3847,-0.127
3848,-0.134
3849,-0.127
3850,-0.140
3851,-0.134
3852,-0.126
3853,-0.135
3854,-0.140
3855,-0.140
3856,-0.137
3857,-0.138
3858,-0.141
3859,-0.137
3860,-0.132
3861,-0.141
3862,-0.141
3863,-0.133
3864,-0.139
3865,-0.141
3866,-0.135
3867,-0.129
3868,-0.131
3869,-0.132
3870,-0.134
3871,-0.140
3872,-0.125
3873,-0.127
3874,-0.141
3875,-0.129
3876,-0.128
3877,-0.120
3878,-0.113
3879,-0.122
3880,-0.123
3881,-0.125
3882,-0.126
3883,-0.124
3884,-0.126
3885,-0.121
3886,-0.124
3887,-0.131
3888,-0.136
3889,-0.147
3890,-0.141
3891,-0.137
3892,-0.141
3893,-0.136
3894,-0.135
3895,-0.135
3896,-0.138
3897,-0.131
3898,-0.128
3899,-0.128
3900,-0.124
3901,-0.131
3902,-0.121
3903,-0.118
3904,-0.121
3905,-0.117
3906,-0.121
3907,-0.123
3908,-0.116
3909,-0.114
3910,-0.109
3911,-0.114
3912,-0.117
3913,-0.107
3914,-0.122
3915,-0.134
3916,-0.129
3917,-0.136
3918,-0.142
3919,-0.136
3920,-0.136
3921,-0.136
3922,-0.133
3923,-0.136
3924,-0.140
3925,-0.147
3926,-0.138
3927,-0.135
3928,-0.139
3929,-0.131
3930,-0.134
3931,-0.132
3932,-0.130
3933,-0.127
3934,-0.128
3935,-0.132
3936,-0.126
3937,-0.124
3938,-0.121
3939,-0.118
3940,-0.126
3941,-0.124
3942,-0.124
3943,-0.123
3944,-0.114
3945,-0.109
3946,-0.112
3947,-0.117
3948,-0.114
3949,-0.113
3950,-0.119
3951,-0.119
3952,-0.124
3953,-0.126
3954,-0.127
3955,-0.133
3956,-0.128
3957,-0.123
3958,-0.118
3959,-0.126
3960,-0.136
3961,-0.133
3962,-0.135
3963,-0.130
3964,-0.129
3965,-0.128
3966,-0.126
3967,-0.130
3968,-0.123
3969,-0.114
3970,-0.108
3971,-0.114
3972,-0.106
3973,-0.097
3974,-0.108
3975,-0.104
3976,-0.091
3977,-0.102
3978,-0.112
3979,-0.114
3980,-0.114
3981,-0.114
3982,-0.121
3983,-0.134
3984,-0.132
3985,-0.112
3986,-0.114
3987,-0.123
3988,-0.123
3989,-0.120
3990,-0.120
3991,-0.120
3992,-0.118
3993,-0.114
3994,-0.110
3995,-0.116
3996,-0.114
3997,-0.106
3998,-0.102
3999,-0.097
4000,-0.095
4001,-0.094
4002,-0.097
4003,-0.093
4004,-0.093
4005,-0.099
4006,-0.097
4007,-0.101
4008,-0.100
4009,-0.105
4010,-0.112
4011,-0.106
4012,-0.114
4013,-0.117
4014,-0.120
4015,-0.127
4016,-0.120
4017,-0.120
4018,-0.120
4019,-0.116
4020,-0.104
4021,-0.098
4022,-0.097
4023,-0.094
4024,-0.090
4025,-0.083
4026,-0.079
4027,-0.085
4028,-0.083
4029,-0.070
4030,-0.064
4031,-0.065
4032,-0.074
4033,-0.079
4034,-0.080
4035,-0.079
4036,-0.075
4037,-0.078
4038,-0.081
4039,-0.086
4040,-0.097
4041,-0.107
4042,-0.115
4043,-0.110
4044,-0.102
4045,-0.111
4046,-0.110
4047,-0.102
4048,-0.106
4049,-0.103
4050,-0.106
4051,-0.102
4052,-0.104
4053,-0.107
4054,-0.092
4055,-0.093
4056,-0.095
4057,-0.084
4058,-0.081
4059,-0.086
4060,-0.086
4061,-0.080
4062,-0.068
4063,-0.065
4064,-0.066
4065,-0.063
4066,-0.060
4067,-0.046
4068,-0.048
4069,-0.054
4070,-0.048
4071,-0.046
4072,-0.052
4073,-0.060
4074,-0.066
4075,-0.065
4076,-0.074
4077,-0.085
4078,-0.083
4079,-0.091
4080,-0.097
4081,-0.105
4082,-0.117
4083,-0.104
4084,-0.105
4085,-0.115
4086,-0.117
4087,-0.117
4088,-0.121
4089,-0.123
4090,-0.124
4091,-0.138
4092,-0.142
4093,-0.133
4094,-0.125
4095,-0.120
4096,-0.108
4097,-0.105
4098,-0.105
4099,-0.105
4100,-0.111
4101,-0.114
4102,-0.124
4103,-0.124
4104,-0.121
4105,-0.127
4106,-0.133
4107,-0.132
4108,-0.126
4109,-0.128
4110,-0.120
4111,-0.122
4112,-0.137
4113,-0.147
4114,-0.152
4115,-0.152
4116,-0.149
4117,-0.146
4118,-0.141
4119,-0.130
4120,-0.131
4121,-0.139
4122,-0.130
4123,-0.133
4124,-0.137
4125,-0.133
4126,-0.152
4127,-0.162
4128,-0.185
4129,-0.196
4130,-0.203
4131,-0.221
4132,-0.220
4133,-0.213
4134,-0.208
4135,-0.199
4136,-0.172
4137,-0.153
4138,-0.140
4139,-0.123
4140,-0.099
4141,-0.082
4142,-0.079
4143,-0.073
4144,-0.065
4145,-0.041
4146,-0.013
4147,-0.004
4148,0.010
4149,0.028
4150,0.035
4151,0.054
4152,0.086
4153,0.096
4154,0.103
4155,0.128
4156,0.124
4157,0.120
4158,0.110
4159,0.091
4160,0.057
4161,-0.007
4162,-0.044
4163,-0.075
4164,-0.120
4165,-0.157
4166,-0.175
4167,-0.209
4168,-0.210
4169,-0.192
4170,-0.218
4171,-0.280
4172,-0.351
4173,-0.430
4174,-0.506
4175,-0.556
4176,-0.595
4177,-0.615
4178,-0.624
4179,-0.637
4180,-0.635
4181,-0.641
4182,-0.655
4183,-0.642
4184,-0.619
4185,-0.597
4186,-0.577
4187,-0.551
4188,-0.514
4189,-0.476
4190,-0.443
4191,-0.398
4192,-0.349
4193,-0.316
4194,-0.274
4195,-0.245
4196,-0.227
4197,-0.204
4198,-0.197
4199,-0.189
4200,-0.172
4201,-0.153
4202,-0.143
4203,-0.126
4204,-0.103
4205,-0.109
4206,-0.108
4207,-0.092
4208,-0.085
4209,-0.074
4210,-0.077
4211,-0.075
4212,-0.057
4213,-0.045
4214,-0.043
4215,-0.039
4216,-0.043
4217,-0.046
4218,-0.036
4219,-0.030
4220,-0.025
4221,-0.022
4222,-0.026
4223,-0.022
4224,-0.020
4225,-0.025
4226,-0.021
4227,-0.015
4228,-0.011
4229,-0.011
4230,-0.017
4231,-0.021
4232,-0.029
4233,-0.029
4234,-0.024
4235,-0.017
4236,-0.015
4237,-0.019
4238,-0.013
4239,-0.013
4240,-0.006
4241,0.002
4242,0.003
4243,-0.007
4244,-0.012
4245,-0.003
4246,-0.010
4247,-0.011
4248,-0.014
4249,-0.015
4250,-0.011
4251,-0.017
4252,-0.013
4253,-0.007
4254,-0.010
4255,-0.019
4256,-0.020
4257,-0.022
4258,-0.029
4259,-0.033
4260,-0.038
4261,-0.026
4262,-0.020
4263,-0.010
4264,-0.004
4265,-0.004
4266,0.007
4267,0.011
4268,0.009
4269,0.005
4270,-0.004
4271,-0.015
4272,-0.016
4273,-0.004
4274,0.005
4275,0.004
4276,0.011
4277,0.005
4278,0.006
4279,0.017
4280,0.015
4281,0.011
4282,0.015
4283,0.025
4284,0.017
4285,0.015
4286,0.022
4287,0.018
4288,0.013
4289,0.013
4290,0.011
4291,0.008
4292,0.005
4293,0.008
4294,0.009
4295,0.007
4296,0.008
4297,0.003
4298,0.001
4299,0.006
4300,0.006
4301,0.004
4302,0.005
4303,0.011
4304,0.011
4305,0.007
4306,0.010
4307,0.008
4308,0.014
4309,0.011
4310,0.004
4311,0.003
4312,0.004
4313,0.013
4314,0.005
4315,0.004
4316,0.009
4317,0.013
4318,0.017
4319,0.005
4320,0.001
4321,-0.005
4322,-0.011
4323,-0.011
4324,-0.010
4325,-0.006
4326,-0.006
4327,-0.013
4328,-0.013
4329,-0.013
4330,-0.013
4331,-0.007
4332,-0.009
4333,-0.017
4334,-0.024
4335,-0.022
4336,-0.015
4337,-0.011
4338,-0.013
4339,-0.009
4340,-0.015
4341,-0.018
4342,-0.008
4343,-0.007
4344,-0.003
4345,-0.007
4346,-0.015
4347,-0.015
4348,-0.017
4349,-0.025
4350,-0.036
4351,-0.036
4352,-0.038
4353,-0.042
4354,-0.042
4355,-0.040
4356,-0.038
4357,-0.050
4358,-0.045
4359,-0.042
4360,-0.057
4361,-0.065
4362,-0.066
4363,-0.067
4364,-0.070
4365,-0.071
4366,-0.075
4367,-0.079
4368,-0.080
4369,-0.086
4370,-0.091
4371,-0.097
4372,-0.097
4373,-0.098
4374,-0.103
4375,-0.105
4376,-0.103
4377,-0.106
4378,-0.115
4379,-0.115
4380,-0.116
4381,-0.130
4382,-0.136
4383,-0.141
4384,-0.142
4385,-0.143
4386,-0.147
4387,-0.151
4388,-0.156
4389,-0.163
4390,-0.164
4391,-0.168
4392,-0.172
4393,-0.175
4394,-0.180
4395,-0.181
4396,-0.179
4397,-0.183
4398,-0.183
4399,-0.180
4400,-0.178
4401,-0.177
4402,-0.173
4403,-0.168
4404,-0.172
4405,-0.176
4406,-0.179
4407,-0.181
4408,-0.183
4409,-0.182
4410,-0.180
4411,-0.183
4412,-0.178
4413,-0.175
4414,-0.176
4415,-0.172
4416,-0.171
4417,-0.173
4418,-0.171
4419,-0.171
4420,-0.171
4421,-0.170
4422,-0.172
4423,-0.174
4424,-0.174
4425,-0.177
4426,-0.177
4427,-0.172
4428,-0.166
4429,-0.162
4430,-0.163
4431,-0.166
4432,-0.165
4433,-0.163
4434,-0.164
4435,-0.159
4436,-0.157
4437,-0.160
4438,-0.159
4439,-0.155
4440,-0.157
4441,-0.157
4442,-0.158
4443,-0.163
4444,-0.153
4445,-0.150
4446,-0.156
4447,-0.155
4448,-0.154
4449,-0.150
4450,-0.148
4451,-0.141
4452,-0.137
4453,-0.141
4454,-0.138
4455,-0.135
4456,-0.130
4457,-0.129
4458,-0.130
4459,-0.129
4460,-0.129
4461,-0.128
4462,-0.129
4463,-0.126
4464,-0.121
4465,-0.122
4466,-0.122
4467,-0.126
4468,-0.122
4469,-0.119
4470,-0.120
4471,-0.117
4472,-0.122
4473,-0.127
4474,-0.128
4475,-0.131
4476,-0.134
4477,-0.136
4478,-0.135
4479,-0.135
4480,-0.137
4481,-0.136
4482,-0.130
4483,-0.128
4484,-0.123
4485,-0.119
4486,-0.116
4487,-0.116
4488,-0.118
4489,-0.116
4490,-0.112
4491,-0.112
4492,-0.115
4493,-0.116
4494,-0.118
4495,-0.115
4496,-0.109
4497,-0.116
4498,-0.116
4499,-0.116
4500,-0.118
4501,-0.118
4502,-0.118
4503,-0.119
4504,-0.119
4505,-0.116
4506,-0.117
4507,-0.118
4508,-0.119
4509,-0.121
4510,-0.120
4511,-0.119
4512,-0.124
4513,-0.125
4514,-0.120
4515,-0.123
4516,-0.121
4517,-0.122
4518,-0.126
4519,-0.122
4520,-0.123
4521,-0.123
4522,-0.120
4523,-0.119
4524,-0.120
4525,-0.121
4526,-0.121
4527,-0.120
4528,-0.120
4529,-0.120
4530,-0.122
4531,-0.122
4532,-0.122
4533,-0.119
4534,-0.117
4535,-0.117
4536,-0.117
4537,-0.117
4538,-0.115
4539,-0.114
4540,-0.115
4541,-0.113
4542,-0.112
4543,-0.112
4544,-0.111
4545,-0.110
4546,-0.114
4547,-0.117
4548,-0.113
4549,-0.116
4550,-0.117
4551,-0.116
4552,-0.116
4553,-0.118
4554,-0.120
4555,-0.117
4556,-0.119
4557,-0.119
4558,-0.113
4559,-0.113
4560,-0.114
4561,-0.116
4562,-0.117
4563,-0.116
4564,-0.117
4565,-0.120
4566,-0.121
4567,-0.121
4568,-0.122
4569,-0.122
4570,-0.123
4571,-0.124
4572,-0.122
4573,-0.119
4574,-0.117
4575,-0.116
4576,-0.113
4577,-0.112
4578,-0.112
4579,-0.110
4580,-0.109
4581,-0.107
4582,-0.107
4583,-0.108
4584,-0.106
4585,-0.102
4586,-0.101
4587,-0.102
4588,-0.102
4589,-0.106
4590,-0.107
4591,-0.107
4592,-0.105
4593,-0.105
4594,-0.106
4595,-0.106
4596,-0.110
4597,-0.109
4598,-0.111
4599,-0.112
4600,-0.112
4601,-0.115
4602,-0.117
4603,-0.119
4604,-0.121
4605,-0.122
4606,-0.122
4607,-0.118
4608,-0.117
4609,-0.114
4610,-0.112
4611,-0.112
4612,-0.110
4613,-0.109
4614,-0.108
4615,-0.108
4616,-0.112
4617,-0.114
4618,-0.117
4619,-0.119
4620,-0.120
4621,-0.119
4622,-0.116
4623,-0.118
4624,-0.117
4625,-0.117
4626,-0.116
4627,-0.115
4628,-0.113
4629,-0.110
4630,-0.113
4631,-0.114
4632,-0.110
4633,-0.111
4634,-0.111
4635,-0.111
4636,-0.110
4637,-0.107
4638,-0.104
4639,-0.102
4640,-0.099
4641,-0.099
4642,-0.101
4643,-0.097
4644,-0.096
4645,-0.097
4646,-0.099
4647,-0.101
4648,-0.102
4649,-0.107
4650,-0.109
4651,-0.108
4652,-0.108
4653,-0.105
4654,-0.106
4655,-0.106
4656,-0.103
4657,-0.102
4658,-0.101
4659,-0.102
4660,-0.102
4661,-0.102
4662,-0.102
4663,-0.100
4664,-0.101
4665,-0.100
4666,-0.097
4667,-0.095
4668,-0.096
4669,-0.095
4670,-0.089
4671,-0.089
4672,-0.087
4673,-0.086
4674,-0.085
4675,-0.084
4676,-0.080
4677,-0.080
4678,-0.080
4679,-0.076
4680,-0.077
4681,-0.075
4682,-0.075
4683,-0.081
4684,-0.083
4685,-0.087
4686,-0.090
4687,-0.093
4688,-0.093
4689,-0.091
4690,-0.088
4691,-0.086
4692,-0.084
4693,-0.082
4694,-0.082
4695,-0.079
4696,-0.077
4697,-0.077
4698,-0.075
4699,-0.073
4700,-0.074
4701,-0.079
4702,-0.083
4703,-0.085
4704,-0.086
4705,-0.088
4706,-0.086
4707,-0.087
4708,-0.088
4709,-0.085
4710,-0.082
4711,-0.080
4712,-0.075
4713,-0.072
4714,-0.070
4715,-0.069
4716,-0.066
4717,-0.063
4718,-0.059
4719,-0.058
4720,-0.059
4721,-0.059
4722,-0.059
4723,-0.060
4724,-0.062
4725,-0.064
4726,-0.065
4727,-0.065
4728,-0.065
4729,-0.070
4730,-0.074
4731,-0.074
4732,-0.081
4733,-0.087
4734,-0.095
4735,-0.100
4736,-0.103
4737,-0.108
4738,-0.107
4739,-0.110
4740,-0.114
4741,-0.115
4742,-0.119
4743,-0.123
4744,-0.126
4745,-0.126
4746,-0.126
4747,-0.126
4748,-0.126
4749,-0.126
4750,-0.122
4751,-0.120
4752,-0.120
4753,-0.117
4754,-0.117
4755,-0.117
4756,-0.117
4757,-0.118
4758,-0.119
4759,-0.121
4760,-0.120
4761,-0.121
4762,-0.122
4763,-0.120
4764,-0.118
4765,-0.116
4766,-0.116
4767,-0.117
4768,-0.118
4769,-0.118
4770,-0.119
4771,-0.120
4772,-0.119
4773,-0.122
4774,-0.124
4775,-0.126
4776,-0.135
4777,-0.147
4778,-0.153
4779,-0.165
4780,-0.175
4781,-0.186
4782,-0.200
4783,-0.211
4784,-0.218
4785,-0.222
4786,-0.226
4787,-0.222
4788,-0.210
4789,-0.193
4790,-0.176
4791,-0.160
4792,-0.141
4793,-0.118
4794,-0.098
4795,-0.084
4796,-0.073
4797,-0.060
4798,-0.039
4799,-0.018
4800,-0.003
4801,0.007
4802,0.024
4803,0.044
4804,0.070
4805,0.092
4806,0.104
4807,0.121
4808,0.146
4809,0.165
4810,0.166
4811,0.155
4812,0.120
4813,0.069
4814,0.025
4815,-0.013
4816,-0.034
4817,-0.066
4818,-0.120
4819,-0.139
4820,-0.153
4821,-0.182
4822,-0.197
4823,-0.206
4824,-0.256
4825,-0.338
4826,-0.418
4827,-0.493
4828,-0.534
4829,-0.560
4830,-0.577
4831,-0.591
4832,-0.608
4833,-0.610
4834,-0.600
4835,-0.599
4836,-0.592
4837,-0.575
4838,-0.556
4839,-0.530
4840,-0.498
4841,-0.457
4842,-0.417
4843,-0.377
4844,-0.336
4845,-0.298
4846,-0.263
4847,-0.229
4848,-0.203
4849,-0.183
4850,-0.166
4851,-0.152
4852,-0.140
4853,-0.125
4854,-0.115
4855,-0.110
4856,-0.104
4857,-0.100
4858,-0.092
4859,-0.086
4860,-0.082
4861,-0.076
4862,-0.070
4863,-0.066
4864,-0.062
4865,-0.058
4866,-0.056
4867,-0.052
4868,-0.050
4869,-0.049
4870,-0.046
4871,-0.045
4872,-0.042
4873,-0.041
4874,-0.041
4875,-0.041
4876,-0.040
4877,-0.037
4878,-0.036
4879,-0.035
4880,-0.034
4881,-0.034
4882,-0.033
4883,-0.033
4884,-0.032
4885,-0.031
4886,-0.030
4887,-0.030
4888,-0.026
4889,-0.024
4890,-0.025
4891,-0.025
4892,-0.022
4893,-0.021
4894,-0.022
4895,-0.021
4896,-0.021
4897,-0.020
4898,-0.018
4899,-0.017
4900,-0.016
4901,-0.016
4902,-0.018
4903,-0.017
4904,-0.017
4905,-0.015
4906,-0.013
4907,-0.013
4908,-0.013
4909,-0.013
4910,-0.013
4911,-0.014
4912,-0.014
4913,-0.013
4914,-0.011
4915,-0.011
4916,-0.012
4917,-0.013
4918,-0.013
4919,-0.013
4920,-0.012
4921,-0.011
4922,-0.010
4923,-0.009
4924,-0.008
4925,-0.006
4926,-0.006
4927,-0.005
4928,-0.004
4929,-0.005
4930,-0.004
4931,-0.004
4932,-0.005
4933,-0.002
4934,-0.002
4935,-0.001
4936,-0.003
4937,-0.005
4938,-0.005
4939,-0.007
4940,-0.006
4941,-0.002
4942,-0.001
4943,-0.004
4944,-0.004
4945,-0.002
4946,-0.001
4947,0.000
4948,0.000
4949,0.000
4950,-0.003
4951,-0.002
4952,-0.001
4953,-0.002
4954,0.000
4955,-0.002
4956,-0.003
4957,-0.003
4958,-0.003
4959,-0.003
4960,-0.002
4961,-0.003
4962,-0.004
4963,-0.004
4964,-0.004
4965,-0.003
4966,-0.003
4967,-0.002
4968,-0.004
4969,-0.004
4970,-0.004
4971,-0.005
4972,-0.004
4973,-0.004
4974,-0.004
4975,-0.005
4976,-0.006
4977,-0.006
4978,-0.005
4979,-0.006
4980,-0.005
4981,-0.007
4982,-0.009
4983,-0.011
4984,-0.011
4985,-0.011
4986,-0.013
4987,-0.015
4988,-0.017
4989,-0.018
4990,-0.021
4991,-0.022
4992,-0.022
4993,-0.025
4994,-0.025
4995,-0.028
4996,-0.029
4997,-0.029
4998,-0.030
4999,-0.033
5000,-0.035
5001,-0.037
5002,-0.040
5003,-0.043
5004,-0.045
5005,-0.047
5006,-0.050
5007,-0.051
5008,-0.054
5009,-0.059
5010,-0.060
5011,-0.065
5012,-0.067
5013,-0.070
5014,-0.075
5015,-0.079
5016,-0.083
5017,-0.085
5018,-0.086
5019,-0.090
5020,-0.093
5021,-0.095
5022,-0.097
5023,-0.100
5024,-0.104
5025,-0.109
5026,-0.115
5027,-0.117
5028,-0.119
5029,-0.124
5030,-0.128
5031,-0.133
5032,-0.138
5033,-0.139
5034,-0.141
5035,-0.146
5036,-0.148
5037,-0.151
5038,-0.154
5039,-0.157
5040,-0.159
5041,-0.160
5042,-0.164
5043,-0.167
5044,-0.169
5045,-0.172
5046,-0.174
5047,-0.172
5048,-0.174
5049,-0.177
5050,-0.178
5051,-0.182
5052,-0.183
5053,-0.180
5054,-0.182
5055,-0.184
5056,-0.185
5057,-0.186
5058,-0.187
5059,-0.187
5060,-0.187
5061,-0.186
5062,-0.188
5063,-0.190
5064,-0.190
5065,-0.186
5066,-0.183
5067,-0.184
5068,-0.185
5069,-0.184
5070,-0.183
5071,-0.182
5072,-0.183
5073,-0.181
5074,-0.179
5075,-0.178
5076,-0.177
5077,-0.176
5078,-0.173
5079,-0.172
5080,-0.170
5081,-0.169
5082,-0.167
5083,-0.165
5084,-0.164
5085,-0.163
5086,-0.160
5087,-0.158
5088,-0.156
5089,-0.156
5090,-0.155
5091,-0.152
5092,-0.149
5093,-0.146
5094,-0.145
5095,-0.144
5096,-0.142
5097,-0.141
5098,-0.141
5099,-0.140
5100,-0.140
5101,-0.141
5102,-0.143
5103,-0.142
5104,-0.137
5105,-0.136
5106,-0.134
5107,-0.132
5108,-0.133
5109,-0.131
5110,-0.131
5111,-0.130
5112,-0.130
5113,-0.129
5114,-0.127
5115,-0.126
5116,-0.124
5117,-0.126
5118,-0.125
5119,-0.124
5120,-0.123
5121,-0.121
5122,-0.121
5123,-0.119
5124,-0.121
5125,-0.120
5126,-0.119
5127,-0.119
5128,-0.118
5129,-0.118
5130,-0.117
5131,-0.117
5132,-0.117
5133,-0.117
5134,-0.115
5135,-0.113
5136,-0.115
5137,-0.117
5138,-0.116
5139,-0.115
5140,-0.115
5141,-0.113
5142,-0.113
5143,-0.113
5144,-0.111
5145,-0.112
5146,-0.111
5147,-0.110
5148,-0.112
5149,-0.113
5150,-0.113
5151,-0.111
5152,-0.112
5153,-0.113
5154,-0.112
5155,-0.111
5156,-0.113
5157,-0.115
5158,-0.112
5159,-0.111
5160,-0.112
5161,-0.114
5162,-0.113
5163,-0.112
5164,-0.113
5165,-0.112
5166,-0.113
5167,-0.113
5168,-0.112
5169,-0.113
5170,-0.115
5171,-0.113
5172,-0.113
5173,-0.114
5174,-0.113
5175,-0.112
5176,-0.113
5177,-0.112
5178,-0.113
5179,-0.112
5180,-0.112
5181,-0.114
5182,-0.115
5183,-0.110
5184,-0.110
5185,-0.112
5186,-0.111
5187,-0.113
5188,-0.113
5189,-0.113
5190,-0.112
5191,-0.112
5192,-0.113
5193,-0.111
5194,-0.112
5195,-0.113
5196,-0.113
5197,-0.113
5198,-0.116
5199,-0.116
5200,-0.117
5201,-0.117
5202,-0.118
5203,-0.117
5204,-0.116
5205,-0.115
5206,-0.116
5207,-0.115
5208,-0.115
5209,-0.116
5210,-0.116
5211,-0.117
5212,-0.117
5213,-0.117
5214,-0.116
5215,-0.116
5216,-0.117
5217,-0.117
5218,-0.116
5219,-0.113
5220,-0.114
5221,-0.113
5222,-0.113
5223,-0.113
5224,-0.113
5225,-0.115
5226,-0.113
5227,-0.113
5228,-0.113
5229,-0.111
5230,-0.111
5231,-0.113
5232,-0.113
5233,-0.112
5234,-0.110
5235,-0.111
5236,-0.112
5237,-0.112
5238,-0.112
5239,-0.111
5240,-0.113
5241,-0.113
5242,-0.113
5243,-0.113
5244,-0.113
5245,-0.112
5246,-0.112
5247,-0.113
5248,-0.111
5249,-0.108
5250,-0.110
5251,-0.112
5252,-0.112
5253,-0.112
5254,-0.112
5255,-0.112
5256,-0.112
5257,-0.110
5258,-0.110
5259,-0.111
5260,-0.110
5261,-0.109
5262,-0.110
5263,-0.110
5264,-0.109
5265,-0.110
5266,-0.110
5267,-0.107
5268,-0.106
5269,-0.108
5270,-0.111
5271,-0.110
5272,-0.111
5273,-0.111
5274,-0.109
5275,-0.110
5276,-0.111
5277,-0.108
5278,-0.108
5279,-0.110
5280,-0.108
5281,-0.108
5282,-0.109
5283,-0.108
5284,-0.107
5285,-0.107
5286,-0.109
5287,-0.108
5288,-0.108
5289,-0.104
5290,-0.102
5291,-0.101
5292,-0.101
5293,-0.101
5294,-0.100
5295,-0.101
5296,-0.100
5297,-0.101
5298,-0.099
5299,-0.100
5300,-0.102
5301,-0.102
5302,-0.103
5303,-0.103
5304,-0.104
5305,-0.101
5306,-0.096
5307,-0.095
5308,-0.096
5309,-0.096
5310,-0.095
5311,-0.093
5312,-0.091
5313,-0.090
5314,-0.090
5315,-0.091
5316,-0.090
5317,-0.087
5318,-0.086
5319,-0.086
5320,-0.084
5321,-0.082
5322,-0.080
5323,-0.077
5324,-0.074
5325,-0.072
5326,-0.073
5327,-0.072
5328,-0.070
5329,-0.071
5330,-0.072
5331,-0.073
5332,-0.074
5333,-0.076
5334,-0.081
5335,-0.084
5336,-0.088
5337,-0.092
5338,-0.092
5339,-0.093
5340,-0.091
5341,-0.087
5342,-0.086
5343,-0.084
5344,-0.084
5345,-0.081
5346,-0.076
5347,-0.075
5348,-0.075
5349,-0.077
5350,-0.077
5351,-0.078
5352,-0.082
5353,-0.083
5354,-0.082
5355,-0.080
5356,-0.078
5357,-0.076
5358,-0.076
5359,-0.074
5360,-0.072
5361,-0.070
5362,-0.069
5363,-0.070
5364,-0.066
5365,-0.063
5366,-0.060
5367,-0.058
5368,-0.055
5369,-0.053
5370,-0.053
5371,-0.054
5372,-0.056
5373,-0.057
5374,-0.057
5375,-0.059
5376,-0.058
5377,-0.055
5378,-0.054
5379,-0.058
5380,-0.062
5381,-0.062
5382,-0.063
5383,-0.070
5384,-0.076
5385,-0.081
5386,-0.086
5387,-0.088
5388,-0.092
5389,-0.095
5390,-0.099
5391,-0.102
5392,-0.105
5393,-0.110
5394,-0.113
5395,-0.115
5396,-0.116
5397,-0.116
5398,-0.115
5399,-0.114
5400,-0.114
5401,-0.114
5402,-0.114
5403,-0.114
5404,-0.115
5405,-0.118
5406,-0.115
5407,-0.110
5408,-0.114
5409,-0.113
5410,-0.112
5411,-0.113
5412,-0.111
5413,-0.112
5414,-0.112
5415,-0.108
5416,-0.108
5417,-0.109
5418,-0.111
5419,-0.109
5420,-0.109
5421,-0.110
5422,-0.107
5423,-0.111
5424,-0.114
5425,-0.115
5426,-0.118
5427,-0.124
5428,-0.136
5429,-0.146
5430,-0.158
5431,-0.168
5432,-0.181
5433,-0.193
5434,-0.203
5435,-0.211
5436,-0.214
5437,-0.218
5438,-0.212
5439,-0.200
5440,-0.183
5441,-0.167
5442,-0.151
5443,-0.134
5444,-0.112
5445,-0.092
5446,-0.080
5447,-0.068
5448,-0.054
5449,-0.035
5450,-0.015
5451,-0.004
5452,0.010
5453,0.031
5454,0.053
5455,0.080
5456,0.100
5457,0.117
5458,0.138
5459,0.166
5460,0.179
5461,0.175
5462,0.160
5463,0.117
5464,0.070
5465,0.026
5466,-0.011
5467,-0.035
5468,-0.075
5469,-0.123
5470,-0.142
5471,-0.167
5472,-0.202
5473,-0.217
5474,-0.232
5475,-0.293
5476,-0.380
5477,-0.457
5478,-0.528
5479,-0.569
5480,-0.595
5481,-0.611
5482,-0.620
5483,-0.629
5484,-0.622
5485,-0.617
5486,-0.613
5487,-0.592
5488,-0.573
5489,-0.551
5490,-0.511
5491,-0.471
5492,-0.427
5493,-0.380
5494,-0.338
5495,-0.300
5496,-0.261
5497,-0.225
5498,-0.197
5499,-0.174
5500,-0.156
5501,-0.141
5502,-0.127
5503,-0.118
5504,-0.113
5505,-0.103
5506,-0.097
5507,-0.089
5508,-0.082
5509,-0.078
5510,-0.070
5511,-0.062
5512,-0.057
5513,-0.052
5514,-0.047
5515,-0.049
5516,-0.051
5517,-0.040
5518,-0.035
5519,-0.035
5520,-0.033
5521,-0.030
5522,-0.029
5523,-0.029
5524,-0.027
5525,-0.026
5526,-0.024
5527,-0.022
5528,-0.024
5529,-0.022
5530,-0.021
5531,-0.022
5532,-0.024
5533,-0.024
5534,-0.022
5535,-0.021
5536,-0.021
5537,-0.021
5538,-0.019
5539,-0.017
5540,-0.015
5541,-0.014
5542,-0.015
5543,-0.014
5544,-0.012
5545,-0.011
5546,-0.011
5547,-0.011
5548,-0.009
5549,-0.009
5550,-0.011
5551,-0.011
5552,-0.010
5553,-0.008
5554,-0.009
5555,-0.007
5556,-0.007
5557,-0.009
5558,-0.007
5559,-0.005
5560,-0.004
5561,-0.002
5562,-0.001
5563,-0.004
5564,-0.005
5565,-0.003
5566,-0.003
5567,-0.003
5568,-0.003
5569,-0.004
5570,-0.004
5571,-0.004
5572,-0.005
5573,-0.004
5574,-0.001
5575,-0.001
5576,-0.002
5577,-0.002
5578,0.001
5579,0.003
5580,0.004
5581,0.004
5582,0.002
5583,0.002
5584,0.002
5585,0.003
5586,0.004
5587,0.004
5588,0.003
5589,0.003
5590,0.004
5591,0.005
5592,0.006
5593,0.005
5594,0.006
5595,0.007
5596,0.004
5597,0.005
5598,0.008
5599,0.005
5600,0.005
5601,0.006
5602,0.006
5603,0.006
5604,0.006
5605,0.008
5606,0.006
5607,0.006
5608,0.008
5609,0.008
5610,0.009
5611,0.009
5612,0.009
5613,0.006
5614,0.006
5615,0.006
5616,0.005
5617,0.004
5618,0.003
5619,0.006
5620,0.005
5621,0.004
5622,0.006
5623,0.005
5624,0.004
5625,0.003
5626,0.002
5627,0.003
5628,0.004
5629,0.001
5630,-0.001
5631,0.002
5632,-0.001
5633,-0.004
5634,-0.005
5635,-0.004
5636,-0.005
5637,-0.006
5638,-0.007
5639,-0.008
5640,-0.009
5641,-0.007
5642,-0.009
5643,-0.011
5644,-0.011
5645,-0.013
5646,-0.014
5647,-0.017
5648,-0.021
5649,-0.018
5650,-0.018
5651,-0.024
5652,-0.028
5653,-0.031
5654,-0.032
5655,-0.034
5656,-0.037
5657,-0.040
5658,-0.044
5659,-0.048
5660,-0.050
5661,-0.051
5662,-0.054
5663,-0.058
5664,-0.060
5665,-0.063
5666,-0.067
5667,-0.069
5668,-0.074
5669,-0.079
5670,-0.080
5671,-0.084
5672,-0.088
5673,-0.091
5674,-0.095
5675,-0.098
5676,-0.101
5677,-0.103
5678,-0.105
5679,-0.107
5680,-0.111
5681,-0.114
5682,-0.117
5683,-0.118
5684,-0.121
5685,-0.127
5686,-0.129
5687,-0.129
5688,-0.133
5689,-0.137
5690,-0.139
5691,-0.143
5692,-0.145
5693,-0.146
5694,-0.150
5695,-0.151
5696,-0.152
5697,-0.154
5698,-0.153
5699,-0.153
5700,-0.159
5701,-0.159
5702,-0.160
5703,-0.162
5704,-0.165
5705,-0.169
5706,-0.168
5707,-0.168
5708,-0.171
5709,-0.172
5710,-0.173
5711,-0.173
5712,-0.173
5713,-0.172
5714,-0.171
5715,-0.171
5716,-0.172
5717,-0.171
5718,-0.172
5719,-0.169
5720,-0.166
5721,-0.165
5722,-0.164
5723,-0.163
5724,-0.161
5725,-0.161
5726,-0.158
5727,-0.154
5728,-0.154
5729,-0.152
5730,-0.152
5731,-0.152
5732,-0.150
5733,-0.146
5734,-0.145
5735,-0.142
5736,-0.140
5737,-0.141
5738,-0.139
5739,-0.137
5740,-0.138
5741,-0.133
5742,-0.133
5743,-0.134
5744,-0.131
5745,-0.127
5746,-0.123
5747,-0.123
5748,-0.123
5749,-0.122
5750,-0.120
5751,-0.121
5752,-0.120
5753,-0.116
5754,-0.117
5755,-0.118
5756,-0.113
5757,-0.112
5758,-0.113
5759,-0.111
5760,-0.112
5761,-0.109
5762,-0.107
5763,-0.107
5764,-0.106
5765,-0.105
5766,-0.103
5767,-0.103
5768,-0.102
5769,-0.102
5770,-0.101
5771,-0.102
5772,-0.101
5773,-0.100
5774,-0.101
5775,-0.102
5776,-0.101
5777,-0.100
5778,-0.100
5779,-0.099
5780,-0.098
5781,-0.096
5782,-0.095
5783,-0.097
5784,-0.098
5785,-0.098
5786,-0.101
5787,-0.099
5788,-0.097
5789,-0.098
5790,-0.098
5791,-0.097
5792,-0.095
5793,-0.094
5794,-0.095
5795,-0.095
5796,-0.097
5797,-0.097
5798,-0.097
5799,-0.097
5800,-0.097
5801,-0.097
5802,-0.097
5803,-0.098
5804,-0.099
5805,-0.100
5806,-0.100
5807,-0.100
5808,-0.100
5809,-0.101
5810,-0.102
5811,-0.102
5812,-0.102
5813,-0.103
5814,-0.102
5815,-0.101
5816,-0.102
5817,-0.102
5818,-0.102
5819,-0.102
5820,-0.101
5821,-0.101
5822,-0.100
5823,-0.102
5824,-0.102
5825,-0.102
5826,-0.102
5827,-0.102
5828,-0.105
5829,-0.107
5830,-0.105
5831,-0.106
5832,-0.107
5833,-0.105
5834,-0.106
5835,-0.107
5836,-0.106
5837,-0.106
5838,-0.105
5839,-0.105
5840,-0.103
5841,-0.106
5842,-0.110
5843,-0.108
5844,-0.110
5845,-0.110
5846,-0.107
5847,-0.108
5848,-0.108
5849,-0.110
5850,-0.109
5851,-0.108
5852,-0.109
5853,-0.109
5854,-0.108
5855,-0.107
5856,-0.110
5857,-0.111
5858,-0.107
5859,-0.108
5860,-0.108
5861,-0.108
5862,-0.108
5863,-0.107
5864,-0.108
5865,-0.109
5866,-0.110
5867,-0.109
5868,-0.107
5869,-0.108
5870,-0.107
5871,-0.107
5872,-0.108
5873,-0.110
5874,-0.111
5875,-0.107
5876,-0.105
5877,-0.105
5878,-0.106
5879,-0.105
5880,-0.107
5881,-0.107
5882,-0.106
5883,-0.107
5884,-0.105
5885,-0.105
5886,-0.105
5887,-0.104
5888,-0.102
5889,-0.103
5890,-0.104
5891,-0.105
5892,-0.105
5893,-0.104
5894,-0.105
5895,-0.103
5896,-0.103
5897,-0.102
5898,-0.101
5899,-0.100
5900,-0.099
5901,-0.100
5902,-0.100
5903,-0.098
5904,-0.099
5905,-0.101
5906,-0.100
5907,-0.098
5908,-0.096
5909,-0.100
5910,-0.102
5911,-0.101
5912,-0.101
5913,-0.100
5914,-0.101
5915,-0.101
5916,-0.101
5917,-0.101
5918,-0.099
5919,-0.100
5920,-0.100
5921,-0.099
5922,-0.100
5923,-0.098
5924,-0.097
5925,-0.099
5926,-0.098
5927,-0.098
5928,-0.097
5929,-0.099
5930,-0.099
5931,-0.098
5932,-0.101
5933,-0.097
5934,-0.095
5935,-0.095
5936,-0.094
5937,-0.093
5938,-0.095
5939,-0.095
5940,-0.092
5941,-0.092
5942,-0.091
5943,-0.092
5944,-0.093
5945,-0.093
5946,-0.093
5947,-0.093
5948,-0.094
5949,-0.092
5950,-0.092
5951,-0.091
5952,-0.090
5953,-0.090
5954,-0.090
5955,-0.087
5956,-0.085
5957,-0.083
5958,-0.082
5959,-0.080
5960,-0.079
5961,-0.078
5962,-0.075
5963,-0.073
5964,-0.073
5965,-0.074
5966,-0.073
5967,-0.073
5968,-0.072
5969,-0.068
5970,-0.067
5971,-0.064
5972,-0.062
5973,-0.061
5974,-0.059
5975,-0.058
5976,-0.059
5977,-0.059
5978,-0.062
5979,-0.067
5980,-0.072
5981,-0.075
5982,-0.077
5983,-0.081
5984,-0.083
5985,-0.083
5986,-0.081
5987,-0.076
5988,-0.074
5989,-0.074
5990,-0.075
5991,-0.071
5992,-0.068
5993,-0.068
5994,-0.066
5995,-0.065
5996,-0.069
5997,-0.071
5998,-0.071
5999,-0.069
6000,-0.069
6001,-0.066
6002,-0.062
6003,-0.063
6004,-0.060
6005,-0.057
6006,-0.056
6007,-0.054
6008,-0.053
6009,-0.051
6010,-0.050
6011,-0.048
6012,-0.045
6013,-0.044
6014,-0.043
6015,-0.042
6016,-0.043
6017,-0.043
6018,-0.046
6019,-0.046
6020,-0.044
6021,-0.044
6022,-0.042
6023,-0.044
6024,-0.046
6025,-0.051
6026,-0.054
6027,-0.053
6028,-0.060
6029,-0.068
6030,-0.072
6031,-0.077
6032,-0.086
6033,-0.087
6034,-0.088
6035,-0.093
6036,-0.095
6037,-0.099
6038,-0.107
6039,-0.112
6040,-0.111
6041,-0.112
6042,-0.107
6043,-0.104
6044,-0.105
6045,-0.105
6046,-0.102
6047,-0.102
6048,-0.106
6049,-0.101
6050,-0.101
6051,-0.103
6052,-0.102
6053,-0.103
6054,-0.101
6055,-0.095
6056,-0.093
6057,-0.092
6058,-0.092
6059,-0.096
6060,-0.092
6061,-0.095
6062,-0.095
6063,-0.092
6064,-0.091
6065,-0.085
6066,-0.083
6067,-0.079
6068,-0.080
6069,-0.083
6070,-0.083
6071,-0.084
6072,-0.087
6073,-0.098
6074,-0.113
6075,-0.127
6076,-0.133
6077,-0.141
6078,-0.158
6079,-0.172
6080,-0.180
6081,-0.185
6082,-0.191
6083,-0.184
6084,-0.177
6085,-0.167
6086,-0.148
6087,-0.130
6088,-0.110
6089,-0.093
6090,-0.075
6091,-0.059
6092,-0.048
6093,-0.034
6094,-0.018
6095,-0.001
6096,0.017
6097,0.027
6098,0.042
6099,0.063
6100,0.092
6101,0.123
6102,0.142
6103,0.165
6104,0.190
6105,0.213
6106,0.217
6107,0.207
6108,0.183
6109,0.126
6110,0.070
6111,0.028
6112,-0.004
6113,-0.032
6114,-0.087
6115,-0.126
6116,-0.141
6117,-0.175
6118,-0.202
6119,-0.218
6120,-0.247
6121,-0.321
6122,-0.407
6123,-0.483
6124,-0.540
6125,-0.572
6126,-0.588
6127,-0.588
6128,-0.599
6129,-0.610
6130,-0.601
6131,-0.600
6132,-0.593
6133,-0.566
6134,-0.545
6135,-0.517
6136,-0.482
6137,-0.443
6138,-0.398
6139,-0.352
6140,-0.309
6141,-0.273
6142,-0.236
6143,-0.194
6144,-0.165
6145,-0.145
6146,-0.133
6147,-0.120
6148,-0.100
6149,-0.095
6150,-0.085
6151,-0.077
6152,-0.077
6153,-0.067
6154,-0.062
6155,-0.054
6156,-0.050
6157,-0.048
6158,-0.043
6159,-0.038
6160,-0.037
6161,-0.033
6162,-0.028
6163,-0.024
6164,-0.023
6165,-0.027
6166,-0.025
6167,-0.021
6168,-0.017
6169,-0.019
6170,-0.018
6171,-0.015
6172,-0.015
6173,-0.015
6174,-0.018
6175,-0.015
6176,-0.017
6177,-0.015
6178,-0.011
6179,-0.010
6180,-0.013
6181,-0.007
6182,-0.008
6183,-0.014
6184,-0.008
6185,-0.002
6186,0.003
6187,0.002
6188,0.004
6189,-0.001
6190,0.000
6191,0.005
6192,-0.003
6193,-0.011
6194,-0.015
6195,-0.009
6196,0.004
6197,-0.001
6198,-0.009
6199,-0.005
6200,-0.003
6201,-0.001
6202,0.001
6203,0.000
6204,-0.006
6205,-0.003
6206,-0.004
6207,-0.006
6208,0.001
6209,-0.001
6210,-0.001
6211,0.001
6212,-0.004
6213,-0.009
6214,-0.004
6215,-0.006
6216,-0.004
6217,0.001
6218,-0.005
6219,0.010
6220,0.018
6221,0.014
6222,0.022
6223,0.026
6224,0.026
6225,0.024
6226,0.018
6227,0.025
6228,0.030
6229,0.034
6230,0.038
6231,0.044
6232,0.046
6233,0.036
6234,0.039
6235,0.035
6236,0.032
6237,0.032
6238,0.029
6239,0.035
6240,0.029
6241,0.024
6242,0.021
6243,0.018
6244,0.014
6245,0.019
6246,0.024
6247,0.010
6248,0.007
6249,0.004
6250,-0.007
6251,-0.011
6252,-0.002
6253,0.009
6254,0.013
6255,0.010
6256,0.006
6257,0.011
6258,0.009
6259,0.003
6260,0.004
6261,0.007
6262,0.006
6263,0.007
6264,0.007
6265,0.004
6266,0.000
6267,0.001
6268,0.002
6269,0.001
6270,-0.001
6271,-0.004
6272,0.003
6273,0.000
6274,-0.006
6275,0.003
6276,0.008
6277,0.004
6278,-0.003
6279,-0.008
6280,-0.012
6281,-0.010
6282,-0.004
6283,-0.004
6284,-0.005
6285,-0.006
6286,-0.001
6287,0.001
6288,-0.006
6289,0.002
6290,0.011
6291,0.018
6292,0.018
6293,0.015
6294,0.017
6295,0.014
6296,0.015
6297,0.008
6298,0.003
6299,0.004
6300,0.000
6301,-0.004
6302,-0.011
6303,-0.015
6304,-0.024
6305,-0.025
6306,-0.027
6307,-0.041
6308,-0.051
6309,-0.053
6310,-0.063
6311,-0.070
6312,-0.069
6313,-0.081
6314,-0.086
6315,-0.090
6316,-0.105
6317,-0.111
6318,-0.114
6319,-0.118
6320,-0.123
6321,-0.116
6322,-0.108
6323,-0.105
6324,-0.102
6325,-0.104
6326,-0.099
6327,-0.098
6328,-0.108
6329,-0.112
6330,-0.103
6331,-0.109
6332,-0.115
6333,-0.110
6334,-0.117
6335,-0.113
6336,-0.113
6337,-0.128
6338,-0.135
6339,-0.135
6340,-0.132
6341,-0.136
6342,-0.138
6343,-0.140
6344,-0.146
6345,-0.155
6346,-0.157
6347,-0.158
6348,-0.162
6349,-0.168
6350,-0.171
6351,-0.164
6352,-0.163
6353,-0.162
6354,-0.160
6355,-0.159
6356,-0.152
6357,-0.152
6358,-0.151
6359,-0.153
6360,-0.153
6361,-0.151
6362,-0.154
6363,-0.156
6364,-0.154
6365,-0.151
6366,-0.145
6367,-0.145
6368,-0.148
6369,-0.146
6370,-0.147
6371,-0.149
6372,-0.153
6373,-0.153
6374,-0.152
6375,-0.151
6376,-0.147
6377,-0.146
6378,-0.148
6379,-0.147
6380,-0.144
6381,-0.139
6382,-0.138
6383,-0.136
6384,-0.126
6385,-0.128
6386,-0.128
6387,-0.124
6388,-0.116
6389,-0.115
6390,-0.121
6391,-0.126
6392,-0.123
6393,-0.117
6394,-0.118
6395,-0.116
6396,-0.117
6397,-0.120
6398,-0.112
6399,-0.108
6400,-0.112
6401,-0.114
6402,-0.104
6403,-0.104
6404,-0.104
6405,-0.100
6406,-0.107
6407,-0.102
6408,-0.099
6409,-0.098
6410,-0.095
6411,-0.088
6412,-0.083
6413,-0.088
6414,-0.088
6415,-0.083
6416,-0.081
6417,-0.084
6418,-0.090
6419,-0.093
6420,-0.093
6421,-0.091
6422,-0.088
6423,-0.091
6424,-0.087
6425,-0.083
6426,-0.086
6427,-0.086
6428,-0.083
6429,-0.089
6430,-0.093
6431,-0.088
6432,-0.093
6433,-0.089
6434,-0.092
6435,-0.086
6436,-0.080
6437,-0.092
6438,-0.082
6439,-0.076
6440,-0.088
6441,-0.087
6442,-0.087
6443,-0.095
6444,-0.096
6445,-0.099
6446,-0.100
6447,-0.102
6448,-0.094
6449,-0.094
6450,-0.105
6451,-0.105
6452,-0.110
6453,-0.105
6454,-0.104
6455,-0.100
6456,-0.098
6457,-0.100
6458,-0.100
6459,-0.095
6460,-0.095
6461,-0.103
6462,-0.091
6463,-0.090
6464,-0.095
6465,-0.084
6466,-0.080
6467,-0.082
6468,-0.087
6469,-0.092
6470,-0.099
6471,-0.094
6472,-0.100
6473,-0.114
6474,-0.106
6475,-0.102
6476,-0.100
6477,-0.106
6478,-0.107
6479,-0.095
6480,-0.097
6481,-0.103
6482,-0.103
6483,-0.104
6484,-0.105
6485,-0.103
6486,-0.100
6487,-0.088
6488,-0.087
6489,-0.087
6490,-0.080
6491,-0.080
6492,-0.083
6493,-0.084
6494,-0.086
6495,-0.092
6496,-0.085
6497,-0.080
6498,-0.083
6499,-0.080
6500,-0.083
6501,-0.081
6502,-0.083
6503,-0.080
6504,-0.081
6505,-0.081
6506,-0.075
6507,-0.084
6508,-0.081
6509,-0.078
6510,-0.083
6511,-0.083
6512,-0.081
6513,-0.083
6514,-0.082
6515,-0.085
6516,-0.088
6517,-0.088
6518,-0.095
6519,-0.103
6520,-0.103
6521,-0.098
6522,-0.100
6523,-0.103
6524,-0.109
6525,-0.108
6526,-0.102
6527,-0.110
6528,-0.113
6529,-0.110
6530,-0.113
6531,-0.103
6532,-0.106
6533,-0.116
6534,-0.113
6535,-0.115
6536,-0.110
6537,-0.106
6538,-0.102
6539,-0.096
6540,-0.100
6541,-0.086
6542,-0.077
6543,-0.086
6544,-0.082
6545,-0.088
6546,-0.097
6547,-0.090
6548,-0.092
6549,-0.085
6550,-0.083
6551,-0.089
6552,-0.081
6553,-0.079
6554,-0.086
6555,-0.086
6556,-0.080
6557,-0.075
6558,-0.073
6559,-0.077
6560,-0.071
6561,-0.067
6562,-0.068
6563,-0.068
6564,-0.065
6565,-0.068
6566,-0.069
6567,-0.064
6568,-0.065
6569,-0.070
6570,-0.070
6571,-0.069
6572,-0.070
6573,-0.067
6574,-0.070
6575,-0.065
6576,-0.066
6577,-0.068
6578,-0.074
6579,-0.087
6580,-0.082
6581,-0.080
6582,-0.076
6583,-0.062
6584,-0.058
6585,-0.064
6586,-0.069
6587,-0.077
6588,-0.075
6589,-0.068
6590,-0.066
6591,-0.072
6592,-0.073
6593,-0.064
6594,-0.065
6595,-0.071
6596,-0.072
6597,-0.075
6598,-0.073
6599,-0.075
6600,-0.081
6601,-0.083
6602,-0.085
6603,-0.077
6604,-0.077
6605,-0.077
6606,-0.067
6607,-0.067
6608,-0.062
6609,-0.062
6610,-0.064
6611,-0.057
6612,-0.063
6613,-0.055
6614,-0.051
6615,-0.052
6616,-0.059
6617,-0.064
6618,-0.052
6619,-0.057
6620,-0.058
6621,-0.059
6622,-0.064
6623,-0.069
6624,-0.061
6625,-0.056
6626,-0.056
6627,-0.044
6628,-0.043
6629,-0.052
6630,-0.041
6631,-0.022
6632,-0.022
6633,-0.022
6634,-0.024
6635,-0.023
6636,-0.025
6637,-0.029
6638,-0.024
6639,-0.031
6640,-0.029
6641,-0.026
6642,-0.035
6643,-0.043
6644,-0.051
6645,-0.054
6646,-0.056
6647,-0.053
6648,-0.048
6649,-0.055
6650,-0.056
6651,-0.052
6652,-0.061
6653,-0.056
6654,-0.049
6655,-0.049
6656,-0.044
6657,-0.043
6658,-0.037
6659,-0.029
6660,-0.026
6661,-0.030
6662,-0.029
6663,-0.021
6664,-0.018
6665,-0.021
6666,-0.029
6667,-0.038
6668,-0.048
6669,-0.053
6670,-0.068
6671,-0.077
6672,-0.087
6673,-0.093
6674,-0.084
6675,-0.091
6676,-0.091
6677,-0.091
6678,-0.087
6679,-0.076
6680,-0.074
6681,-0.075
6682,-0.077
6683,-0.076
6684,-0.083
6685,-0.083
6686,-0.079
6687,-0.086
6688,-0.090
6689,-0.085
6690,-0.081
6691,-0.071
6692,-0.063
6693,-0.068
6694,-0.059
6695,-0.057
6696,-0.069
6697,-0.075
6698,-0.080
6699,-0.084
6700,-0.091
6701,-0.095
6702,-0.091
6703,-0.082
6704,-0.078
6705,-0.081
6706,-0.087
6707,-0.084
6708,-0.086
6709,-0.089
6710,-0.086
6711,-0.089
6712,-0.100
6713,-0.120
6714,-0.123
6715,-0.137
6716,-0.147
6717,-0.147
6718,-0.172
6719,-0.186
6720,-0.186
6721,-0.188
6722,-0.190
6723,-0.180
6724,-0.156
6725,-0.127
6726,-0.102
6727,-0.081
6728,-0.056
6729,-0.031
6730,-0.013
6731,-0.005
6732,-0.001
6733,0.010
6734,0.035
6735,0.052
6736,0.050
6737,0.071
6738,0.101
6739,0.113
6740,0.136
6741,0.157
6742,0.169
6743,0.189
6744,0.208
6745,0.210
6746,0.204
6747,0.174
6748,0.132
6749,0.078
6750,0.011
6751,-0.025
6752,-0.061
6753,-0.106
6754,-0.146
6755,-0.172
6756,-0.191
6757,-0.182
6758,-0.172
6759,-0.186
6760,-0.240
6761,-0.326
6762,-0.396
6763,-0.464
6764,-0.507
6765,-0.537
6766,-0.557
6767,-0.563
6768,-0.578
6769,-0.589
6770,-0.593
6771,-0.608
6772,-0.607
6773,-0.586
6774,-0.564
6775,-0.543
6776,-0.518
6777,-0.483
6778,-0.446
6779,-0.407
6780,-0.376
6781,-0.334
6782,-0.288
6783,-0.252
6784,-0.229
6785,-0.204
6786,-0.172
6787,-0.150
6788,-0.137
6789,-0.121
6790,-0.098
6791,-0.085
6792,-0.076
6793,-0.062
6794,-0.052
6795,-0.044
6796,-0.045
6797,-0.049
6798,-0.043
6799,-0.035
6800,-0.025
6801,-0.013
6802,-0.004
6803,0.006
6804,0.009
6805,0.011
6806,0.017
6807,0.018
6808,0.019
6809,0.018
6810,0.012
6811,0.004
6812,0.008
6813,0.014
6814,0.008
6815,0.009
6816,0.013
6817,0.018
6818,0.015
6819,0.012
6820,0.019
6821,0.018
6822,0.019
6823,0.027
6824,0.029
6825,0.032
6826,0.029
6827,0.018
6828,0.011
6829,0.007
6830,0.004
6831,-0.003
6832,-0.004
6833,-0.005
6834,0.000
6835,0.004
6836,0.006
6837,0.011
6838,0.010
6839,0.011
6840,0.008
6841,0.015
6842,0.024
6843,0.025
6844,0.032
6845,0.031
6846,0.025
6847,0.029
6848,0.025
6849,0.021
6850,0.034
6851,0.038
6852,0.040
6853,0.046
6854,0.053
6855,0.062
6856,0.062
6857,0.058
6858,0.060
6859,0.058
6860,0.058
6861,0.059
6862,0.056
6863,0.061
6864,0.057
6865,0.051
6866,0.059
6867,0.052
6868,0.046
6869,0.053
6870,0.053
6871,0.040
6872,0.037
6873,0.045
6874,0.041
6875,0.035
6876,0.041
6877,0.051
6878,0.053
6879,0.056
6880,0.061
6881,0.068
6882,0.065
6883,0.067
6884,0.057
6885,0.042
6886,0.052
6887,0.050
6888,0.043
6889,0.043
6890,0.036
6891,0.025
6892,0.018
6893,0.026
6894,0.035
6895,0.042
6896,0.034
6897,0.026
6898,0.026
6899,0.029
6900,0.029
6901,0.022
6902,0.033
6903,0.038
6904,0.048
6905,0.050
6906,0.037
6907,0.035
6908,0.032
6909,0.029
6910,0.030
6911,0.033
6912,0.043
6913,0.051
6914,0.059
6915,0.059
6916,0.051
6917,0.056
6918,0.048
6919,0.050
6920,0.059
6921,0.051
6922,0.044
6923,0.052
6924,0.049
6925,0.032
6926,0.035
6927,0.036
6928,0.028
6929,0.026
6930,0.026
6931,0.017
6932,0.011
6933,0.011
6934,0.011
6935,0.019
6936,0.021
6937,0.018
6938,0.015
6939,0.009
6940,0.004
6941,-0.007
6942,-0.010
6943,-0.007
6944,-0.007
6945,0.005
6946,0.001
6947,-0.006
6948,0.001
6949,-0.004
6950,-0.007
6951,-0.007
6952,-0.018
6953,-0.029
6954,-0.032
6955,-0.032
6956,-0.033
6957,-0.034
6958,-0.046
6959,-0.056
6960,-0.066
6961,-0.069
6962,-0.070
6963,-0.084
6964,-0.083
6965,-0.085
6966,-0.083
6967,-0.075
6968,-0.085
6969,-0.091
6970,-0.103
6971,-0.105
6972,-0.099
6973,-0.111
6974,-0.115
6975,-0.109
6976,-0.107
6977,-0.117
6978,-0.121
6979,-0.126
6980,-0.128
6981,-0.122
6982,-0.124
6983,-0.121
6984,-0.117
6985,-0.108
6986,-0.106
6987,-0.114
6988,-0.122
6989,-0.122
6990,-0.121
6991,-0.125
6992,-0.116
6993,-0.117
6994,-0.122
6995,-0.130
6996,-0.137
6997,-0.139
6998,-0.137
6999,-0.128
7000,-0.129
7001,-0.128
7002,-0.130
7003,-0.133
7004,-0.132
7005,-0.140
7006,-0.147
7007,-0.142
7008,-0.144
7009,-0.153
7010,-0.150
7011,-0.147
7012,-0.136
7013,-0.125
7014,-0.123
7015,-0.130
7016,-0.140
7017,-0.130
7018,-0.124
7019,-0.128
7020,-0.126
7021,-0.121
7022,-0.122
7023,-0.129
7024,-0.125
7025,-0.123
7026,-0.127
7027,-0.118
7028,-0.110
7029,-0.105
7030,-0.102
7031,-0.099
7032,-0.095
7033,-0.099
7034,-0.092
7035,-0.093
7036,-0.097
7037,-0.089
7038,-0.090
7039,-0.097
7040,-0.091
7041,-0.091
7042,-0.093
7043,-0.087
7044,-0.090
7045,-0.081
7046,-0.075
7047,-0.076
7048,-0.070
7049,-0.073
7050,-0.084
7051,-0.082
7052,-0.082
7053,-0.089
7054,-0.092
7055,-0.086
7056,-0.077
7057,-0.083
7058,-0.081
7059,-0.077
7060,-0.081
7061,-0.079
7062,-0.079
7063,-0.073
7064,-0.072
7065,-0.083
7066,-0.086
7067,-0.092
7068,-0.091
7069,-0.079
7070,-0.082
7071,-0.093
7072,-0.098
7073,-0.094
7074,-0.088
7075,-0.096
7076,-0.101
7077,-0.099
7078,-0.101
7079,-0.098
7080,-0.099
7081,-0.094
7082,-0.087
7083,-0.090
7084,-0.085
7085,-0.071
7086,-0.062
7087,-0.058
7088,-0.056
7089,-0.060
7090,-0.062
7091,-0.061
7092,-0.059
7093,-0.054
7094,-0.049
7095,-0.052
7096,-0.052
7097,-0.053
7098,-0.059
7099,-0.062
7100,-0.066
7101,-0.068
7102,-0.071
7103,-0.071
7104,-0.072
7105,-0.071
7106,-0.073
7107,-0.076
7108,-0.074
7109,-0.083
7110,-0.087
7111,-0.083
7112,-0.080
7113,-0.072
7114,-0.067
7115,-0.068
7116,-0.065
7117,-0.060
7118,-0.060
7119,-0.064
7120,-0.065
7121,-0.064
7122,-0.062
7123,-0.062
7124,-0.065
7125,-0.065
7126,-0.064
7127,-0.069
7128,-0.074
7129,-0.076
7130,-0.080
7131,-0.089
7132,-0.095
7133,-0.089
7134,-0.088
7135,-0.089
7136,-0.089
7137,-0.089
7138,-0.090
7139,-0.088
7140,-0.085
7141,-0.080
7142,-0.074
7143,-0.078
7144,-0.078
7145,-0.072
7146,-0.069
7147,-0.071
7148,-0.070
7149,-0.067
7150,-0.069
7151,-0.070
7152,-0.073
7153,-0.076
7154,-0.076
7155,-0.076
7156,-0.082
7157,-0.082
7158,-0.081
7159,-0.083
7160,-0.084
7161,-0.085
7162,-0.084
7163,-0.084
7164,-0.083
7165,-0.078
7166,-0.079
7167,-0.078
7168,-0.075
7169,-0.072
7170,-0.071
7171,-0.071
7172,-0.071
7173,-0.071
7174,-0.069
7175,-0.065
7176,-0.067
7177,-0.077
7178,-0.077
7179,-0.075
7180,-0.074
7181,-0.076
7182,-0.077
7183,-0.077
7184,-0.080
7185,-0.074
7186,-0.075
7187,-0.075
7188,-0.073
7189,-0.067
7190,-0.064
7191,-0.065
7192,-0.062
7193,-0.066
7194,-0.063
7195,-0.058
7196,-0.056
7197,-0.055
7198,-0.052
7199,-0.050
7200,-0.056
7201,-0.061
7202,-0.065
7203,-0.057
7204,-0.055
7205,-0.061
7206,-0.057
7207,-0.056
7208,-0.059
7209,-0.057
7210,-0.059
7211,-0.054
7212,-0.057
7213,-0.060
7214,-0.055
7215,-0.061
7216,-0.060
7217,-0.058
7218,-0.059
7219,-0.060
7220,-0.059
7221,-0.063
7222,-0.064
7223,-0.059
7224,-0.060
7225,-0.063
7226,-0.065
7227,-0.068
7228,-0.069
7229,-0.071
7230,-0.070
7231,-0.070
7232,-0.067
7233,-0.063
7234,-0.061
7235,-0.059
7236,-0.057
7237,-0.056
7238,-0.060
7239,-0.059
7240,-0.056
7241,-0.053
7242,-0.047
7243,-0.048
7244,-0.053
7245,-0.057
7246,-0.057
7247,-0.053
7248,-0.051
7249,-0.047
7250,-0.042
7251,-0.040
7252,-0.037
7253,-0.036
7254,-0.033
7255,-0.037
7256,-0.035
7257,-0.035
7258,-0.039
7259,-0.033
7260,-0.030
7261,-0.026
7262,-0.025
7263,-0.029
7264,-0.034
7265,-0.041
7266,-0.042
7267,-0.047
7268,-0.050
7269,-0.043
7270,-0.040
7271,-0.042
7272,-0.044
7273,-0.046
7274,-0.043
7275,-0.035
7276,-0.035
7277,-0.041
7278,-0.040
7279,-0.041
7280,-0.045
7281,-0.044
7282,-0.045
7283,-0.043
7284,-0.040
7285,-0.040
7286,-0.037
7287,-0.035
7288,-0.037
7289,-0.033
7290,-0.033
7291,-0.030
7292,-0.030
7293,-0.033
7294,-0.030
7295,-0.026
7296,-0.015
7297,-0.015
7298,-0.019
7299,-0.015
7300,-0.013
7301,-0.013
7302,-0.013
7303,-0.013
7304,-0.019
7305,-0.021
7306,-0.021
7307,-0.024
7308,-0.025
7309,-0.026
7310,-0.028
7311,-0.034
7312,-0.042
7313,-0.045
7314,-0.048
7315,-0.055
7316,-0.059
7317,-0.058
7318,-0.062
7319,-0.075
7320,-0.082
7321,-0.084
7322,-0.087
7323,-0.092
7324,-0.093
7325,-0.091
7326,-0.092
7327,-0.092
7328,-0.090
7329,-0.088
7330,-0.088
7331,-0.086
7332,-0.083
7333,-0.083
7334,-0.083
7335,-0.081
7336,-0.079
7337,-0.075
7338,-0.073
7339,-0.071
7340,-0.070
7341,-0.071
7342,-0.068
7343,-0.067
7344,-0.068
7345,-0.067
7346,-0.066
7347,-0.064
7348,-0.064
7349,-0.065
7350,-0.063
7351,-0.065
7352,-0.065
7353,-0.070
7354,-0.073
7355,-0.076
7356,-0.086
7357,-0.098
7358,-0.111
7359,-0.121
7360,-0.128
7361,-0.138
7362,-0.148
7363,-0.159
7364,-0.168
7365,-0.171
7366,-0.176
7367,-0.173
7368,-0.161
7369,-0.145
7370,-0.128
7371,-0.110
7372,-0.092
7373,-0.074
7374,-0.057
7375,-0.042
7376,-0.033
7377,-0.022
7378,0.001
7379,0.018
7380,0.030
7381,0.046
7382,0.061
7383,0.076
7384,0.095
7385,0.121
7386,0.129
7387,0.148
7388,0.169
7389,0.173
7390,0.183
7391,0.154
7392,0.128
7393,0.079
7394,0.017
7395,-0.004
7396,-0.030
7397,-0.070
7398,-0.115
7399,-0.138
7400,-0.148
7401,-0.150
7402,-0.155
7403,-0.173
7404,-0.233
7405,-0.316
7406,-0.388
7407,-0.460
7408,-0.509
7409,-0.530
7410,-0.540
7411,-0.555
7412,-0.573
7413,-0.578
7414,-0.585
7415,-0.588
7416,-0.570
7417,-0.563
7418,-0.551
7419,-0.522
7420,-0.499
7421,-0.465
7422,-0.423
7423,-0.385
7424,-0.344
7425,-0.303
7426,-0.261
7427,-0.228
7428,-0.201
7429,-0.170
7430,-0.149
7431,-0.134
7432,-0.117
7433,-0.102
7434,-0.087
7435,-0.074
7436,-0.066
7437,-0.060
7438,-0.054
7439,-0.048
7440,-0.042
7441,-0.036
7442,-0.030
7443,-0.025
7444,-0.020
7445,-0.014
7446,-0.011
7447,-0.006
7448,0.000
7449,0.002
7450,0.001
7451,0.000
7452,-0.001
7453,-0.001
7454,0.000
7455,-0.002
7456,-0.001
7457,0.002
7458,0.002
7459,0.002
7460,0.004
7461,0.004
7462,0.006
7463,0.009
7464,0.008
7465,0.009
7466,0.009
7467,0.011
7468,0.013
7469,0.013
7470,0.013
7471,0.013
7472,0.013
7473,0.013
7474,0.015
7475,0.018
7476,0.023
7477,0.025
7478,0.025
7479,0.025
7480,0.026
7481,0.028
7482,0.025
7483,0.025
7484,0.028
7485,0.026
7486,0.029
7487,0.030
7488,0.029
7489,0.030
7490,0.030
7491,0.029
7492,0.028
7493,0.029
7494,0.030
7495,0.031
7496,0.031
7497,0.031
7498,0.030
7499,0.032
7500,0.035
7501,0.034
7502,0.034
7503,0.034
7504,0.034
7505,0.033
7506,0.032
7507,0.030
7508,0.030
7509,0.033
7510,0.033
7511,0.033
7512,0.032
7513,0.032
7514,0.033
7515,0.033
7516,0.033
7517,0.033
7518,0.032
7519,0.030
7520,0.033
7521,0.035
7522,0.035
7523,0.035
7524,0.035
7525,0.034
7526,0.032
7527,0.033
7528,0.035
7529,0.034
7530,0.033
7531,0.033
7532,0.034
7533,0.035
7534,0.035
7535,0.036
7536,0.037
7537,0.036
7538,0.036
7539,0.036
7540,0.035
7541,0.035
7542,0.036
7543,0.036
7544,0.035
7545,0.034
7546,0.034
7547,0.034
7548,0.035
7549,0.034
7550,0.033
7551,0.034
7552,0.034
7553,0.032
7554,0.032
7555,0.035
7556,0.034
7557,0.030
7558,0.029
7559,0.026
7560,0.025
7561,0.026
7562,0.025
7563,0.022
7564,0.022
7565,0.021
7566,0.018
7567,0.017
7568,0.016
7569,0.015
7570,0.015
7571,0.014
7572,0.013
7573,0.011
7574,0.009
7575,0.007
7576,0.004
7577,0.004
7578,0.001
7579,0.001
7580,-0.002
7581,-0.003
7582,-0.005
7583,-0.011
7584,-0.013
7585,-0.015
7586,-0.018
7587,-0.020
7588,-0.023
7589,-0.026
7590,-0.030
7591,-0.032
7592,-0.035
7593,-0.040
7594,-0.042
7595,-0.044
7596,-0.049
7597,-0.051
7598,-0.055
7599,-0.059
7600,-0.060
7601,-0.063
7602,-0.068
7603,-0.070
7604,-0.073
7605,-0.077
7606,-0.081
7607,-0.085
7608,-0.087
7609,-0.091
7610,-0.096
7611,-0.100
7612,-0.102
7613,-0.105
7614,-0.110
7615,-0.112
7616,-0.114
7617,-0.118
7618,-0.121
7619,-0.121
7620,-0.124
7621,-0.127
7622,-0.129
7623,-0.133
7624,-0.134
7625,-0.135
7626,-0.138
7627,-0.140
7628,-0.140
7629,-0.142
7630,-0.145
7631,-0.147
7632,-0.149
7633,-0.149
7634,-0.150
7635,-0.151
7636,-0.153
7637,-0.154
7638,-0.153
7639,-0.155
7640,-0.154
7641,-0.155
7642,-0.155
7643,-0.154
7644,-0.154
7645,-0.152
7646,-0.151
7647,-0.152
7648,-0.151
7649,-0.151
7650,-0.150
7651,-0.151
7652,-0.151
7653,-0.148
7654,-0.148
7655,-0.149
7656,-0.145
7657,-0.143
7658,-0.143
7659,-0.142
7660,-0.142
7661,-0.142
7662,-0.141
7663,-0.139
7664,-0.139
7665,-0.137
7666,-0.135
7667,-0.134
7668,-0.131
7669,-0.130
7670,-0.128
7671,-0.126
7672,-0.126
7673,-0.123
7674,-0.123
7675,-0.122
7676,-0.121
7677,-0.120
7678,-0.118
7679,-0.118
7680,-0.116
7681,-0.113
7682,-0.113
7683,-0.113
7684,-0.113
7685,-0.110
7686,-0.108
7687,-0.108
7688,-0.105
7689,-0.104
7690,-0.103
7691,-0.102
7692,-0.100
7693,-0.100
7694,-0.100
7695,-0.099
7696,-0.101
7697,-0.101
7698,-0.102
7699,-0.101
7700,-0.095
7701,-0.097
7702,-0.095
7703,-0.096
7704,-0.097
7705,-0.094
7706,-0.092
7707,-0.091
7708,-0.090
7709,-0.091
7710,-0.093
7711,-0.092
7712,-0.091
7713,-0.092
7714,-0.092
7715,-0.091
7716,-0.091
7717,-0.091
7718,-0.091
7719,-0.090
7720,-0.090
7721,-0.089
7722,-0.089
7723,-0.089
7724,-0.089
7725,-0.090
7726,-0.089
7727,-0.088
7728,-0.088
7729,-0.088
7730,-0.089
7731,-0.088
7732,-0.088
7733,-0.088
7734,-0.088
7735,-0.088
7736,-0.088
7737,-0.086
7738,-0.088
7739,-0.089
7740,-0.088
7741,-0.089
7742,-0.087
7743,-0.089
7744,-0.089
7745,-0.087
7746,-0.087
7747,-0.089
7748,-0.092
7749,-0.089
7750,-0.090
7751,-0.090
7752,-0.090
7753,-0.089
7754,-0.090
7755,-0.090
7756,-0.089
7757,-0.091
7758,-0.090
7759,-0.089
7760,-0.089
7761,-0.087
7762,-0.088
7763,-0.090
7764,-0.089
7765,-0.090
7766,-0.089
7767,-0.088
7768,-0.090
7769,-0.090
7770,-0.091
7771,-0.090
7772,-0.091
7773,-0.091
7774,-0.090
7775,-0.088
7776,-0.085
7777,-0.086
7778,-0.089
7779,-0.089
7780,-0.090
7781,-0.088
7782,-0.090
7783,-0.091
7784,-0.088
7785,-0.088
7786,-0.089
7787,-0.091
7788,-0.090
7789,-0.089
7790,-0.091
7791,-0.092
7792,-0.095
7793,-0.094
7794,-0.094
7795,-0.095
7796,-0.093
7797,-0.092
7798,-0.091
7799,-0.091
7800,-0.090
7801,-0.090
7802,-0.090
7803,-0.089
7804,-0.091
7805,-0.091
7806,-0.091
7807,-0.090
7808,-0.088
7809,-0.088
7810,-0.088
7811,-0.089
7812,-0.091
7813,-0.091
7814,-0.092
7815,-0.091
7816,-0.090
7817,-0.092
7818,-0.093
7819,-0.092
7820,-0.090
7821,-0.090
7822,-0.091
7823,-0.090
7824,-0.089
7825,-0.088
7826,-0.088
7827,-0.087
7828,-0.087
7829,-0.088
7830,-0.088
7831,-0.088
7832,-0.091
7833,-0.093
7834,-0.093
7835,-0.093
7836,-0.093
7837,-0.094
7838,-0.092
7839,-0.088
7840,-0.087
7841,-0.086
7842,-0.085
7843,-0.087
7844,-0.086
7845,-0.086
7846,-0.087
7847,-0.087
7848,-0.088
7849,-0.089
7850,-0.089
7851,-0.089
7852,-0.089
7853,-0.090
7854,-0.092
7855,-0.090
7856,-0.090
7857,-0.089
7858,-0.089
7859,-0.089
7860,-0.089
7861,-0.090
7862,-0.087
7863,-0.086
7864,-0.087
7865,-0.088
7866,-0.087
7867,-0.088
7868,-0.087
7869,-0.086
7870,-0.086
7871,-0.086
7872,-0.085
7873,-0.084
7874,-0.084
7875,-0.084
7876,-0.082
7877,-0.080
7878,-0.081
7879,-0.081
7880,-0.082
7881,-0.084
7882,-0.080
7883,-0.079
7884,-0.079
7885,-0.077
7886,-0.079
7887,-0.081
7888,-0.081
7889,-0.079
7890,-0.077
7891,-0.076
7892,-0.079
7893,-0.082
7894,-0.081
7895,-0.077
7896,-0.075
7897,-0.075
7898,-0.075
7899,-0.074
7900,-0.073
7901,-0.072
7902,-0.070
7903,-0.067
7904,-0.065
7905,-0.062
7906,-0.060
7907,-0.058
7908,-0.056
7909,-0.054
7910,-0.055
7911,-0.057
7912,-0.059
7913,-0.058
7914,-0.060
7915,-0.065
7916,-0.067
7917,-0.070
7918,-0.072
7919,-0.075
7920,-0.077
7921,-0.075
7922,-0.072
7923,-0.068
7924,-0.068
7925,-0.068
7926,-0.069
7927,-0.064
7928,-0.058
7929,-0.058
7930,-0.058
7931,-0.057
7932,-0.059
7933,-0.062
7934,-0.064
7935,-0.067
7936,-0.066
7937,-0.060
7938,-0.057
7939,-0.057
7940,-0.057
7941,-0.053
7942,-0.051
7943,-0.049
7944,-0.050
7945,-0.051
7946,-0.048
7947,-0.044
7948,-0.044
7949,-0.042
7950,-0.037
7951,-0.037
7952,-0.040
7953,-0.042
7954,-0.044
7955,-0.043
7956,-0.043
7957,-0.043
7958,-0.042
7959,-0.044
7960,-0.044
7961,-0.044
7962,-0.048
7963,-0.048
7964,-0.053
7965,-0.060
7966,-0.066
7967,-0.071
7968,-0.074
7969,-0.075
7970,-0.078
7971,-0.083
7972,-0.085
7973,-0.089
7974,-0.098
7975,-0.099
7976,-0.098
7977,-0.098
7978,-0.098
7979,-0.099
7980,-0.097
7981,-0.097
7982,-0.097
7983,-0.098
7984,-0.099
7985,-0.098
7986,-0.099
7987,-0.098
7988,-0.099
7989,-0.099
7990,-0.099
7991,-0.100
7992,-0.100
7993,-0.100
7994,-0.102
7995,-0.101
7996,-0.098
7997,-0.098
7998,-0.099
7999,-0.098
8000,-0.096
8001,-0.095
8002,-0.095
8003,-0.095
8004,-0.095
8005,-0.098
8006,-0.100
8007,-0.104
8008,-0.109
8009,-0.119
8010,-0.132
8011,-0.142
8012,-0.153
8013,-0.166
8014,-0.179
8015,-0.191
8016,-0.198
8017,-0.200
8018,-0.205
8019,-0.201
8020,-0.190
8021,-0.172
8022,-0.155
8023,-0.139
8024,-0.119
8025,-0.099
8026,-0.077
8027,-0.066
8028,-0.054
8029,-0.042
8030,-0.026
8031,-0.005
8032,0.005
8033,0.019
8034,0.040
8035,0.062
8036,0.088
8037,0.112
8038,0.131
8039,0.147
8040,0.172
8041,0.187
8042,0.182
8043,0.172
8044,0.139
8045,0.091
8046,0.046
8047,0.007
8048,-0.017
8049,-0.052
8050,-0.102
8051,-0.124
8052,-0.145
8053,-0.180
8054,-0.199
8055,-0.211
8056,-0.267
8057,-0.351
8058,-0.429
8059,-0.501
8060,-0.544
8061,-0.573
8062,-0.591
8063,-0.603
8064,-0.610
8065,-0.606
8066,-0.602
8067,-0.602
8068,-0.586
8069,-0.563
8070,-0.544
8071,-0.505
8072,-0.465
8073,-0.423
8074,-0.374
8075,-0.332
8076,-0.294
8077,-0.256
8078,-0.220
8079,-0.191
8080,-0.170
8081,-0.152
8082,-0.137
8083,-0.123
8084,-0.109
8085,-0.100
8086,-0.093
8087,-0.086
8088,-0.082
8089,-0.074
8090,-0.067
8091,-0.060
8092,-0.056
8093,-0.050
8094,-0.044
8095,-0.040
8096,-0.035
8097,-0.033
8098,-0.032
8099,-0.029
8100,-0.029
8101,-0.028
8102,-0.024
8103,-0.022
8104,-0.021
8105,-0.018
8106,-0.018
8107,-0.016
8108,-0.015
8109,-0.014
8110,-0.014
8111,-0.012
8112,-0.011
8113,-0.013
8114,-0.012
8115,-0.013
8116,-0.013
8117,-0.011
8118,-0.009
8119,-0.009
8120,-0.007
8121,-0.007
8122,-0.005
8123,-0.005
8124,-0.006
8125,-0.004
8126,-0.003
8127,-0.002
8128,-0.003
8129,-0.004
8130,-0.002
8131,-0.002
8132,-0.001
8133,0.001
8134,0.000
8135,-0.002
8136,0.001
8137,0.004
8138,0.005
8139,0.004
8140,-0.001
8141,0.003
8142,0.004
8143,0.004
8144,0.006
8145,0.006
8146,0.006
8147,0.006
8148,0.006
8149,0.007
8150,0.007
8151,0.007
8152,0.007
8153,0.005
8154,0.004
8155,0.005
8156,0.008
8157,0.005
8158,0.004
8159,0.007
8160,0.007
8161,0.006
8162,0.007
8163,0.005
8164,0.007
8165,0.009
8166,0.009
8167,0.011
8168,0.010
8169,0.011
8170,0.011
8171,0.011
8172,0.010
8173,0.009
8174,0.009
8175,0.007
8176,0.008
8177,0.009
8178,0.007
8179,0.009
8180,0.008
8181,0.006
8182,0.008
8183,0.010
8184,0.011
8185,0.009
8186,0.009
8187,0.010
8188,0.010
8189,0.011
8190,0.011
8191,0.011
8192,0.011
8193,0.009
8194,0.010
8195,0.011
8196,0.013
8197,0.013
8198,0.013
8199,0.011
8200,0.012
8201,0.011
8202,0.009
8203,0.011
8204,0.011
8205,0.011
8206,0.011
8207,0.009
8208,0.006
8209,0.004
8210,0.005
8211,0.009
8212,0.006
8213,0.005
8214,0.004
8215,0.004
8216,0.005
8217,0.004
8218,-0.001
8219,0.000
8220,0.000
8221,-0.001
8222,-0.001
8223,-0.004
8224,-0.005
8225,-0.006
8226,-0.009
8227,-0.011
8228,-0.013
8229,-0.017
8230,-0.019
8231,-0.020
8232,-0.021
8233,-0.024
8234,-0.029
8235,-0.034
8236,-0.036
8237,-0.038
8238,-0.040
8239,-0.041
8240,-0.043
8241,-0.048
8242,-0.050
8243,-0.052
8244,-0.055
8245,-0.057
8246,-0.060
8247,-0.063
8248,-0.067
8249,-0.068
8250,-0.069
8251,-0.075
8252,-0.077
8253,-0.080
8254,-0.086
8255,-0.087
8256,-0.091
8257,-0.095
8258,-0.099
8259,-0.102
8260,-0.105
8261,-0.112
8262,-0.115
8263,-0.118
8264,-0.121
8265,-0.123
8266,-0.124
8267,-0.128
8268,-0.132
8269,-0.133
8270,-0.137
8271,-0.140
8272,-0.142
8273,-0.145
8274,-0.146
8275,-0.147
8276,-0.149
8277,-0.149
8278,-0.151
8279,-0.154
8280,-0.157
8281,-0.158
8282,-0.159
8283,-0.159
8284,-0.161
8285,-0.162
8286,-0.161
8287,-0.162
8288,-0.164
8289,-0.165
8290,-0.163
8291,-0.164
8292,-0.166
8293,-0.167
8294,-0.167
8295,-0.168
8296,-0.169
8297,-0.167
8298,-0.166
8299,-0.167
8300,-0.166
8301,-0.165
8302,-0.166
8303,-0.161
8304,-0.159
8305,-0.160
8306,-0.159
8307,-0.158
8308,-0.154
8309,-0.152
8310,-0.152
8311,-0.151
8312,-0.148
8313,-0.146
8314,-0.146
8315,-0.145
8316,-0.143
8317,-0.142
8318,-0.140
8319,-0.136
8320,-0.136
8321,-0.137
8322,-0.135
8323,-0.133
8324,-0.131
8325,-0.129
8326,-0.129
8327,-0.127
8328,-0.126
8329,-0.131
8330,-0.129
8331,-0.125
8332,-0.125
8333,-0.122
8334,-0.121
8335,-0.121
8336,-0.118
8337,-0.116
8338,-0.116
8339,-0.116
8340,-0.115
8341,-0.115
8342,-0.113
8343,-0.114
8344,-0.111
8345,-0.105
8346,-0.106
8347,-0.106
8348,-0.107
8349,-0.105
8350,-0.104
8351,-0.105
8352,-0.103
8353,-0.102
8354,-0.103
8355,-0.105
8356,-0.105
8357,-0.103
8358,-0.105
8359,-0.107
8360,-0.105
8361,-0.104
8362,-0.101
8363,-0.102
8364,-0.104
8365,-0.101
8366,-0.100
8367,-0.107
8368,-0.107
8369,-0.099
8370,-0.101
8371,-0.103
8372,-0.105
8373,-0.105
8374,-0.106
8375,-0.103
8376,-0.099
8377,-0.102
8378,-0.103
8379,-0.103
8380,-0.102
8381,-0.102
8382,-0.103
8383,-0.105
8384,-0.102
8385,-0.100
8386,-0.104
8387,-0.104
8388,-0.103
8389,-0.103
8390,-0.102
8391,-0.103
8392,-0.103
8393,-0.105
8394,-0.106
8395,-0.104
8396,-0.102
8397,-0.103
8398,-0.108
8399,-0.111
8400,-0.111
8401,-0.110
8402,-0.111
8403,-0.111
8404,-0.112
8405,-0.112
8406,-0.113
8407,-0.112
8408,-0.108
8409,-0.110
8410,-0.112
8411,-0.114
8412,-0.114
8413,-0.112
8414,-0.112
8415,-0.114
8416,-0.114
8417,-0.114
8418,-0.114
8419,-0.115
8420,-0.117
8421,-0.118
8422,-0.117
8423,-0.115
8424,-0.112
8425,-0.112
8426,-0.115
8427,-0.116
8428,-0.117
8429,-0.115
8430,-0.113
8431,-0.114
8432,-0.117
8433,-0.118
8434,-0.117
8435,-0.117
8436,-0.117
8437,-0.117
8438,-0.116
8439,-0.117
8440,-0.117
8441,-0.117
8442,-0.117
8443,-0.117
8444,-0.117
8445,-0.116
8446,-0.116
8447,-0.116
8448,-0.116
8449,-0.114
8450,-0.114
8451,-0.114
8452,-0.115
8453,-0.115
8454,-0.116
8455,-0.116
8456,-0.113
8457,-0.113
8458,-0.115
8459,-0.113
8460,-0.112
8461,-0.114
8462,-0.115
8463,-0.116
8464,-0.115
8465,-0.115
8466,-0.115
8467,-0.116
8468,-0.117
8469,-0.116
8470,-0.115
8471,-0.114
8472,-0.114
8473,-0.114
8474,-0.114
8475,-0.117
8476,-0.117
8477,-0.117
8478,-0.118
8479,-0.117
8480,-0.117
8481,-0.116
8482,-0.115
8483,-0.114
8484,-0.115
8485,-0.114
8486,-0.113
8487,-0.115
8488,-0.116
8489,-0.115
8490,-0.112
8491,-0.112
8492,-0.112
8493,-0.110
8494,-0.113
8495,-0.110
8496,-0.108
8497,-0.110
8498,-0.113
8499,-0.116
8500,-0.113
8501,-0.111
8502,-0.110
8503,-0.110
8504,-0.111
8505,-0.111
8506,-0.111
8507,-0.110
8508,-0.110
8509,-0.112
8510,-0.113
8511,-0.113
8512,-0.112
8513,-0.110
8514,-0.109
8515,-0.109
8516,-0.106
8517,-0.110
8518,-0.109
8519,-0.105
8520,-0.106
8521,-0.105
8522,-0.103
8523,-0.102
8524,-0.102
8525,-0.105
8526,-0.105
8527,-0.103
8528,-0.103
8529,-0.103
8530,-0.101
8531,-0.100
8532,-0.099
8533,-0.098
8534,-0.099
8535,-0.100
8536,-0.098
8537,-0.095
8538,-0.095
8539,-0.093
8540,-0.092
8541,-0.092
8542,-0.088
8543,-0.086
8544,-0.089
8545,-0.089
8546,-0.087
8547,-0.086
8548,-0.085
8549,-0.084
8550,-0.081
8551,-0.077
8552,-0.074
8553,-0.073
8554,-0.074
8555,-0.076
8556,-0.077
8557,-0.076
8558,-0.081
8559,-0.088
8560,-0.090
8561,-0.093
8562,-0.097
8563,-0.099
8564,-0.098
8565,-0.095
8566,-0.092
8567,-0.091
8568,-0.088
8569,-0.086
8570,-0.085
8571,-0.082
8572,-0.081
8573,-0.081
8574,-0.082
8575,-0.086
8576,-0.088
8577,-0.087
8578,-0.089
8579,-0.090
8580,-0.087
8581,-0.085
8582,-0.085
8583,-0.085
8584,-0.082
8585,-0.075
8586,-0.072
8587,-0.074
8588,-0.074
8589,-0.073
8590,-0.069
8591,-0.063
8592,-0.061
8593,-0.061
8594,-0.062
8595,-0.062
8596,-0.064
8597,-0.066
8598,-0.067
8599,-0.067
8600,-0.066
8601,-0.065
8602,-0.064
8603,-0.064
8604,-0.067
8605,-0.069
8606,-0.070
8607,-0.075
8608,-0.080
8609,-0.086
8610,-0.092
8611,-0.096
8612,-0.102
8613,-0.104
8614,-0.106
8615,-0.112
8616,-0.115
8617,-0.119
8618,-0.122
8619,-0.124
8620,-0.127
8621,-0.128
8622,-0.126
8623,-0.123
8624,-0.122
8625,-0.121
8626,-0.123
8627,-0.124
8628,-0.122
8629,-0.122
8630,-0.122
8631,-0.122
8632,-0.122
8633,-0.123
8634,-0.123
8635,-0.124
8636,-0.123
8637,-0.123
8638,-0.121
8639,-0.121
8640,-0.119
8641,-0.117
8642,-0.118
8643,-0.117
8644,-0.116
8645,-0.117
8646,-0.118
8647,-0.118
8648,-0.118
8649,-0.122
8650,-0.123
8651,-0.128
8652,-0.135
8653,-0.145
8654,-0.156
8655,-0.166
8656,-0.175
8657,-0.185
8658,-0.199
8659,-0.211
8660,-0.214
8661,-0.219
8662,-0.223
8663,-0.214
8664,-0.200
8665,-0.181
8666,-0.167
8667,-0.151
8668,-0.133
8669,-0.113
8670,-0.091
8671,-0.076
8672,-0.064
8673,-0.050
8674,-0.031
8675,-0.011
8676,0.001
8677,0.015
8678,0.037
8679,0.064
8680,0.090
8681,0.112
8682,0.131
8683,0.149
8684,0.177
8685,0.190
8686,0.177
8687,0.160
8688,0.114
8689,0.061
8690,0.016
8691,-0.020
8692,-0.045
8693,-0.093
8694,-0.146
8695,-0.165
8696,-0.190
8697,-0.224
8698,-0.237
8699,-0.254
8700,-0.317
8701,-0.401
8702,-0.482
8703,-0.546
8704,-0.582
8705,-0.605
8706,-0.617
8707,-0.629
8708,-0.639
8709,-0.634
8710,-0.630
8711,-0.630
8712,-0.609
8713,-0.586
8714,-0.565
8715,-0.528
8716,-0.488
8717,-0.446
8718,-0.398
8719,-0.352
8720,-0.314
8721,-0.278
8722,-0.241
8723,-0.210
8724,-0.189
8725,-0.171
8726,-0.159
8727,-0.144
8728,-0.131
8729,-0.120
8730,-0.112
8731,-0.105
8732,-0.098
8733,-0.093
8734,-0.087
8735,-0.082
8736,-0.073
8737,-0.068
8738,-0.062
8739,-0.050
8740,-0.044
8741,-0.041
8742,-0.040
8743,-0.037
8744,-0.032
8745,-0.031
8746,-0.032
8747,-0.029
8748,-0.034
8749,-0.035
8750,-0.030
8751,-0.030
8752,-0.034
8753,-0.033
8754,-0.029
8755,-0.035
8756,-0.037
8757,-0.037
8758,-0.039
8759,-0.039
8760,-0.035
8761,-0.032
8762,-0.035
8763,-0.038
8764,-0.034
8765,-0.026
8766,-0.025
8767,-0.025
8768,-0.022
8769,-0.018
8770,-0.018
8771,-0.018
8772,-0.015
8773,-0.010
8774,-0.005
8775,-0.003
8776,0.001
8777,-0.002
8778,-0.005
8779,-0.004
8780,-0.006
8781,-0.005
8782,-0.002
8783,-0.003
8784,-0.004
8785,-0.005
8786,-0.004
8787,-0.005
8788,-0.009
8789,-0.007
8790,-0.004
8791,-0.005
8792,-0.007
8793,-0.011
8794,-0.013
8795,-0.013
8796,-0.011
8797,-0.009
8798,-0.006
8799,-0.008
8800,-0.013
8801,-0.011
8802,-0.012
8803,-0.013
8804,-0.015
8805,-0.018
8806,-0.013
8807,-0.013
8808,-0.010
8809,-0.011
8810,-0.010
8811,-0.003
8812,-0.009
8813,-0.011
8814,-0.011
8815,-0.009
8816,-0.007
8817,-0.009
8818,-0.009
8819,-0.011
8820,-0.013
8821,-0.013
8822,-0.010
8823,-0.007
8824,-0.012
8825,-0.014
8826,-0.015
8827,-0.013
8828,-0.007
8829,-0.003
8830,0.007
8831,0.010
8832,0.005
8833,0.002
8834,0.007
8835,0.009
8836,0.007
8837,0.005
8838,0.004
8839,0.007
8840,0.001
8841,-0.008
8842,-0.011
8843,-0.010
8844,-0.006
8845,-0.005
8846,-0.004
8847,-0.004
8848,-0.006
8849,-0.014
8850,-0.020
8851,-0.018
8852,-0.018
8853,-0.019
8854,-0.018
8855,-0.014
8856,-0.013
8857,-0.015
8858,-0.007
8859,-0.011
8860,-0.018
8861,-0.018
8862,-0.018
8863,-0.011
8864,-0.011
8865,-0.018
8866,-0.021
8867,-0.018
8868,-0.022
8869,-0.021
8870,-0.021
8871,-0.025
8872,-0.027
8873,-0.027
8874,-0.033
8875,-0.042
8876,-0.040
8877,-0.041
8878,-0.042
8879,-0.042
8880,-0.046
8881,-0.051
8882,-0.050
8883,-0.057
8884,-0.070
8885,-0.069
8886,-0.073
8887,-0.086
8888,-0.083
8889,-0.082
8890,-0.092
8891,-0.091
8892,-0.088
8893,-0.089
8894,-0.095
8895,-0.100
8896,-0.101
8897,-0.105
8898,-0.108
8899,-0.117
8900,-0.124
8901,-0.129
8902,-0.137
8903,-0.145
8904,-0.149
8905,-0.146
8906,-0.146
8907,-0.149
8908,-0.157
8909,-0.158
8910,-0.157
8911,-0.169
8912,-0.169
8913,-0.161
8914,-0.158
8915,-0.161
8916,-0.168
8917,-0.165
8918,-0.165
8919,-0.161
8920,-0.162
8921,-0.172
8922,-0.172
8923,-0.164
8924,-0.149
8925,-0.152
8926,-0.162
8927,-0.154
8928,-0.151
8929,-0.157
8930,-0.158
8931,-0.153
8932,-0.151
8933,-0.159
8934,-0.159
8935,-0.165
8936,-0.172
8937,-0.172
8938,-0.177
8939,-0.180
8940,-0.181
8941,-0.183
8942,-0.183
8943,-0.178
8944,-0.177
8945,-0.179
8946,-0.176
8947,-0.174
8948,-0.174
8949,-0.170
8950,-0.168
8951,-0.172
8952,-0.176
8953,-0.169
8954,-0.168
8955,-0.175
8956,-0.174
8957,-0.174
8958,-0.175
8959,-0.177
8960,-0.172
8961,-0.172
8962,-0.193
8963,-0.192
8964,-0.182
8965,-0.181
8966,-0.177
8967,-0.174
8968,-0.169
8969,-0.165
8970,-0.162
8971,-0.152
8972,-0.147
8973,-0.144
8974,-0.133
8975,-0.125
8976,-0.122
8977,-0.118
8978,-0.111
8979,-0.108
8980,-0.119
8981,-0.122
8982,-0.119
8983,-0.121
8984,-0.123
8985,-0.121
8986,-0.119
8987,-0.106
8988,-0.102
8989,-0.107
8990,-0.104
8991,-0.107
8992,-0.115
8993,-0.116
8994,-0.117
8995,-0.126
8996,-0.134
8997,-0.129
8998,-0.133
8999,-0.137
9000,-0.136
9001,-0.131
9002,-0.118
9003,-0.121
9004,-0.122
9005,-0.116
9006,-0.113
9007,-0.115
9008,-0.118
9009,-0.109
9010,-0.107
9011,-0.110
9012,-0.100
9013,-0.106
9014,-0.112
9015,-0.114
9016,-0.115
9017,-0.108
9018,-0.107
9019,-0.108
9020,-0.104
9021,-0.098
9022,-0.105
9023,-0.113
9024,-0.112
9025,-0.119
9026,-0.126
9027,-0.120
9028,-0.120
9029,-0.126
9030,-0.122
9031,-0.125
9032,-0.131
9033,-0.129
9034,-0.125
9035,-0.122
9036,-0.121
9037,-0.126
9038,-0.135
9039,-0.132
9040,-0.138
9041,-0.139
9042,-0.131
9043,-0.122
9044,-0.122
9045,-0.137
9046,-0.141
9047,-0.136
9048,-0.133
9049,-0.135
9050,-0.137
9051,-0.136
9052,-0.130
9053,-0.123
9054,-0.114
9055,-0.112
9056,-0.114
9057,-0.110
9058,-0.112
9059,-0.114
9060,-0.118
9061,-0.119
9062,-0.113
9063,-0.120
9064,-0.128
9065,-0.128
9066,-0.135
9067,-0.133
9068,-0.132
9069,-0.133
9070,-0.129
9071,-0.123
9072,-0.125
9073,-0.124
9074,-0.121
9075,-0.123
9076,-0.109
9077,-0.110
9078,-0.113
9079,-0.113
9080,-0.120
9081,-0.118
9082,-0.122
9083,-0.129
9084,-0.132
9085,-0.136
9086,-0.133
9087,-0.129
9088,-0.131
9089,-0.126
9090,-0.119
9091,-0.124
9092,-0.123
9093,-0.116
9094,-0.124
9095,-0.129
9096,-0.118
9097,-0.117
9098,-0.120
9099,-0.131
9100,-0.130
9101,-0.123
9102,-0.124
9103,-0.126
9104,-0.133
9105,-0.132
9106,-0.133
9107,-0.129
9108,-0.128
9109,-0.136
9110,-0.134
9111,-0.129
9112,-0.121
9113,-0.130
9114,-0.133
9115,-0.130
9116,-0.126
9117,-0.116
9118,-0.120
9119,-0.117
9120,-0.107
9121,-0.106
9122,-0.099
9123,-0.099
9124,-0.095
9125,-0.089
9126,-0.099
9127,-0.104
9128,-0.102
9129,-0.100
9130,-0.104
9131,-0.110
9132,-0.109
9133,-0.114
9134,-0.117
9135,-0.122
9136,-0.121
9137,-0.115
9138,-0.126
9139,-0.130
9140,-0.124
9141,-0.126
9142,-0.131
9143,-0.129
9144,-0.123
9145,-0.120
9146,-0.115
9147,-0.116
9148,-0.114
9149,-0.114
9150,-0.110
9151,-0.107
9152,-0.111
9153,-0.105
9154,-0.112
9155,-0.110
9156,-0.108
9157,-0.117
9158,-0.117
9159,-0.121
9160,-0.120
9161,-0.117
9162,-0.119
9163,-0.127
9164,-0.115
9165,-0.104
9166,-0.114
9167,-0.108
9168,-0.103
9169,-0.106
9170,-0.101
9171,-0.097
9172,-0.095
9173,-0.093
9174,-0.090
9175,-0.083
9176,-0.082
9177,-0.074
9178,-0.073
9179,-0.075
9180,-0.066
9181,-0.072
9182,-0.074
9183,-0.068
9184,-0.076
9185,-0.080
9186,-0.074
9187,-0.076
9188,-0.079
9189,-0.073
9190,-0.082
9191,-0.088
9192,-0.092
9193,-0.098
9194,-0.090
9195,-0.086
9196,-0.086
9197,-0.088
9198,-0.074
9199,-0.079
9200,-0.089
9201,-0.083
9202,-0.088
9203,-0.099
9204,-0.106
9205,-0.098
9206,-0.091
9207,-0.093
9208,-0.087
9209,-0.084
9210,-0.089
9211,-0.073
9212,-0.073
9213,-0.087
9214,-0.083
9215,-0.087
9216,-0.081
9217,-0.085
9218,-0.094
9219,-0.087
9220,-0.086
9221,-0.081
9222,-0.080
9223,-0.073
9224,-0.067
9225,-0.067
9226,-0.061
9227,-0.061
9228,-0.069
9229,-0.073
9230,-0.074
9231,-0.079
9232,-0.071
9233,-0.079
9234,-0.080
9235,-0.071
9236,-0.075
9237,-0.062
9238,-0.059
9239,-0.059
9240,-0.061
9241,-0.057
9242,-0.051
9243,-0.059
9244,-0.051
9245,-0.050
9246,-0.051
9247,-0.051
9248,-0.058
9249,-0.060
9250,-0.060
9251,-0.062
9252,-0.069
9253,-0.079
9254,-0.080
9255,-0.085
9256,-0.094
9257,-0.102
9258,-0.114
9259,-0.112
9260,-0.107
9261,-0.110
9262,-0.126
9263,-0.123
9264,-0.112
9265,-0.121
9266,-0.119
9267,-0.118
9268,-0.117
9269,-0.119
9270,-0.123
9271,-0.118
9272,-0.116
9273,-0.117
9274,-0.117
9275,-0.115
9276,-0.117
9277,-0.115
9278,-0.111
9279,-0.117
9280,-0.123
9281,-0.120
9282,-0.118
9283,-0.113
9284,-0.109
9285,-0.109
9286,-0.108
9287,-0.115
9288,-0.119
9289,-0.121
9290,-0.111
9291,-0.112
9292,-0.112
9293,-0.110
9294,-0.117
9295,-0.112
9296,-0.120
9297,-0.135
9298,-0.139
9299,-0.157
9300,-0.179
9301,-0.195
9302,-0.203
9303,-0.210
9304,-0.220
9305,-0.223
9306,-0.206
9307,-0.176
9308,-0.159
9309,-0.139
9310,-0.119
9311,-0.095
9312,-0.064
9313,-0.051
9314,-0.049
9315,-0.038
9316,-0.011
9317,0.017
9318,0.022
9319,0.041
9320,0.061
9321,0.072
9322,0.099
9323,0.130
9324,0.144
9325,0.161
9326,0.185
9327,0.178
9328,0.178
9329,0.155
9330,0.118
9331,0.061
9332,-0.023
9333,-0.050
9334,-0.073
9335,-0.118
9336,-0.153
9337,-0.173
9338,-0.195
9339,-0.187
9340,-0.185
9341,-0.220
9342,-0.268
9343,-0.345
9344,-0.424
9345,-0.487
9346,-0.524
9347,-0.555
9348,-0.573
9349,-0.578
9350,-0.593
9351,-0.606
9352,-0.619
9353,-0.624
9354,-0.610
9355,-0.598
9356,-0.591
9357,-0.570
9358,-0.538
9359,-0.515
9360,-0.475
9361,-0.429
9362,-0.404
9363,-0.355
9364,-0.302
9365,-0.277
9366,-0.254
9367,-0.218
9368,-0.194
9369,-0.178
9370,-0.162
9371,-0.142
9372,-0.127
9373,-0.111
9374,-0.086
9375,-0.081
9376,-0.070
9377,-0.057
9378,-0.054
9379,-0.052
9380,-0.059
9381,-0.053
9382,-0.053
9383,-0.054
9384,-0.049
9385,-0.055
9386,-0.059
9387,-0.048
9388,-0.049
9389,-0.054
9390,-0.043
9391,-0.038
9392,-0.040
9393,-0.032
9394,-0.029
9395,-0.038
9396,-0.033
9397,-0.038
9398,-0.040
9399,-0.027
9400,-0.029
9401,-0.028
9402,-0.018
9403,-0.011
9404,-0.011
9405,-0.015
9406,-0.018
9407,-0.012
9408,-0.011
9409,-0.008
9410,-0.004
9411,-0.004
9412,-0.006
9413,-0.008
9414,-0.005
9415,-0.005
9416,-0.005
9417,0.002
9418,0.002
9419,0.004
9420,0.011
9421,0.013
9422,0.010
9423,0.000
9424,-0.004
9425,-0.001
9426,-0.009
9427,-0.013
9428,-0.008
9429,-0.007
9430,-0.004
9431,0.004
9432,0.009
9433,0.010
9434,0.016
9435,0.013
9436,0.021
9437,0.034
9438,0.036
9439,0.034
9440,0.037
9441,0.036
9442,0.029
9443,0.038
9444,0.030
9445,0.020
9446,0.020
9447,0.013
9448,0.009
9449,0.009
9450,0.013
9451,0.019
9452,0.016
9453,0.011
9454,0.011
9455,0.011
9456,0.017
9457,0.017
9458,0.015
9459,0.016
9460,0.024
9461,0.016
9462,0.003
9463,0.001
9464,-0.002
9465,-0.005
9466,-0.006
9467,0.004
9468,0.002
9469,0.001
9470,-0.006
9471,-0.016
9472,-0.018
9473,-0.024
9474,-0.024
9475,-0.018
9476,-0.011
9477,-0.011
9478,-0.011
9479,-0.009
9480,-0.004
9481,-0.002
9482,-0.011
9483,-0.005
9484,0.007
9485,0.014
9486,0.017
9487,0.023
9488,0.035
9489,0.041
9490,0.041
9491,0.036
9492,0.035
9493,0.034
9494,0.035
9495,0.046
9496,0.048
9497,0.038
9498,0.043
9499,0.055
9500,0.050
9501,0.042
9502,0.038
9503,0.035
9504,0.033
9505,0.022
9506,0.023
9507,0.025
9508,0.010
9509,-0.001
9510,-0.011
9511,-0.015
9512,-0.015
9513,-0.019
9514,-0.020
9515,-0.025
9516,-0.029
9517,-0.029
9518,-0.034
9519,-0.038
9520,-0.043
9521,-0.051
9522,-0.057
9523,-0.053
9524,-0.061
9525,-0.065
9526,-0.067
9527,-0.074
9528,-0.071
9529,-0.072
9530,-0.072
9531,-0.064
9532,-0.052
9533,-0.046
9534,-0.048
9535,-0.052
9536,-0.057
9537,-0.066
9538,-0.070
9539,-0.074
9540,-0.076
9541,-0.074
9542,-0.086
9543,-0.098
9544,-0.086
9545,-0.086
9546,-0.102
9547,-0.095
9548,-0.093
9549,-0.095
9550,-0.092
9551,-0.096
9552,-0.098
9553,-0.098
9554,-0.099
9555,-0.107
9556,-0.116
9557,-0.115
9558,-0.110
9559,-0.122
9560,-0.132
9561,-0.137
9562,-0.142
9563,-0.142
9564,-0.153
9565,-0.148
9566,-0.138
9567,-0.141
9568,-0.146
9569,-0.159
9570,-0.161
9571,-0.159
9572,-0.170
9573,-0.174
9574,-0.182
9575,-0.181
9576,-0.172
9577,-0.174
9578,-0.178
9579,-0.172
9580,-0.165
9581,-0.170
9582,-0.170
9583,-0.185
9584,-0.197
9585,-0.191
9586,-0.193
9587,-0.195
9588,-0.187
9589,-0.178
9590,-0.170
9591,-0.162
9592,-0.159
9593,-0.155
9594,-0.154
9595,-0.150
9596,-0.151
9597,-0.151
9598,-0.152
9599,-0.148
9600,-0.138
9601,-0.141
9602,-0.138
9603,-0.135
9604,-0.126
9605,-0.123
9606,-0.132
9607,-0.135
9608,-0.141
9609,-0.141
9610,-0.140
9611,-0.132
9612,-0.123
9613,-0.122
9614,-0.117
9615,-0.119
9616,-0.120
9617,-0.118
9618,-0.121
9619,-0.123
9620,-0.121
9621,-0.117
9622,-0.115
9623,-0.119
9624,-0.127
9625,-0.128
9626,-0.128
9627,-0.133
9628,-0.133
9629,-0.126
9630,-0.118
9631,-0.124
9632,-0.132
9633,-0.129
9634,-0.111
9635,-0.114
9636,-0.117
9637,-0.105
9638,-0.118
9639,-0.128
9640,-0.128
9641,-0.119
9642,-0.112
9643,-0.119
9644,-0.109
9645,-0.102
9646,-0.105
9647,-0.102
9648,-0.110
9649,-0.116
9650,-0.113
9651,-0.115
9652,-0.117
9653,-0.110
9654,-0.109
9655,-0.106
9656,-0.101
9657,-0.100
9658,-0.096
9659,-0.092
9660,-0.092
9661,-0.092
9662,-0.091
9663,-0.092
9664,-0.079
9665,-0.081
9666,-0.083
9667,-0.066
9668,-0.069
9669,-0.078
9670,-0.075
9671,-0.070
9672,-0.078
9673,-0.087
9674,-0.096
9675,-0.098
9676,-0.092
9677,-0.092
9678,-0.099
9679,-0.114
9680,-0.105
9681,-0.106
9682,-0.112
9683,-0.107
9684,-0.105
9685,-0.096
9686,-0.100
9687,-0.096
9688,-0.086
9689,-0.086
9690,-0.091
9691,-0.086
9692,-0.102
9693,-0.110
9694,-0.099
9695,-0.101
9696,-0.096
9697,-0.094
9698,-0.088
9699,-0.087
9700,-0.090
9701,-0.095
9702,-0.105
9703,-0.105
9704,-0.102
9705,-0.121
9706,-0.113
9707,-0.109
9708,-0.123
9709,-0.109
9710,-0.105
9711,-0.105
9712,-0.102
9713,-0.090
9714,-0.084
9715,-0.076
9716,-0.079
9717,-0.096
9718,-0.090
9719,-0.094
9720,-0.094
9721,-0.088
9722,-0.098
9723,-0.098
9724,-0.099
9725,-0.101
9726,-0.100
9727,-0.100
9728,-0.097
9729,-0.099
9730,-0.102
9731,-0.110
9732,-0.106
9733,-0.098
9734,-0.105
9735,-0.106
9736,-0.095
9737,-0.088
9738,-0.098
9739,-0.096
9740,-0.080
9741,-0.077
9742,-0.082
9743,-0.072
9744,-0.080
9745,-0.088
9746,-0.084
9747,-0.092
9748,-0.093
9749,-0.086
9750,-0.088
9751,-0.091
9752,-0.091
9753,-0.086
9754,-0.084
9755,-0.096
9756,-0.098
9757,-0.091
9758,-0.085
9759,-0.085
9760,-0.088
9761,-0.087
9762,-0.084
9763,-0.081
9764,-0.079
9765,-0.085
9766,-0.091
9767,-0.077
9768,-0.070
9769,-0.080
9770,-0.084
9771,-0.081
9772,-0.085
9773,-0.095
9774,-0.094
9775,-0.097
9776,-0.104
9777,-0.096
9778,-0.086
9779,-0.079
9780,-0.088
9781,-0.080
9782,-0.074
9783,-0.097
9784,-0.095
9785,-0.083
9786,-0.086
9787,-0.083
9788,-0.075
9789,-0.074
9790,-0.069
9791,-0.065
9792,-0.068
9793,-0.062
9794,-0.061
9795,-0.067
9796,-0.070
9797,-0.073
9798,-0.079
9799,-0.087
9800,-0.086
9801,-0.091
9802,-0.099
9803,-0.095
9804,-0.095
9805,-0.093
9806,-0.090
9807,-0.090
9808,-0.089
9809,-0.083
9810,-0.072
9811,-0.069
9812,-0.075
9813,-0.075
9814,-0.072
9815,-0.070
9816,-0.067
9817,-0.070
9818,-0.067
9819,-0.065
9820,-0.061
9821,-0.059
9822,-0.060
9823,-0.060
9824,-0.064
9825,-0.061
9826,-0.064
9827,-0.066
9828,-0.068
9829,-0.066
9830,-0.067
9831,-0.073
9832,-0.078
9833,-0.076
9834,-0.075
9835,-0.080
9836,-0.080
9837,-0.081
9838,-0.075
9839,-0.069
9840,-0.068
9841,-0.065
9842,-0.061
9843,-0.055
9844,-0.054
9845,-0.057
9846,-0.055
9847,-0.059
9848,-0.060
9849,-0.057
9850,-0.059
9851,-0.058
9852,-0.059
9853,-0.059
9854,-0.058
9855,-0.059
9856,-0.059
9857,-0.058
9858,-0.055
9859,-0.052
9860,-0.053
9861,-0.054
9862,-0.059
9863,-0.058
9864,-0.060
9865,-0.061
9866,-0.059
9867,-0.059
9868,-0.057
9869,-0.055
9870,-0.049
9871,-0.043
9872,-0.038
9873,-0.034
9874,-0.028
9875,-0.019
9876,-0.025
9877,-0.027
9878,-0.025
9879,-0.022
9880,-0.027
9881,-0.028
9882,-0.023
9883,-0.024
9884,-0.026
9885,-0.034
9886,-0.033
9887,-0.029
9888,-0.024
9889,-0.032
9890,-0.041
9891,-0.036
9892,-0.037
9893,-0.035
9894,-0.036
9895,-0.049
9896,-0.054
9897,-0.057
9898,-0.058
9899,-0.063
9900,-0.070
9901,-0.072
9902,-0.075
9903,-0.080
9904,-0.082
9905,-0.091
9906,-0.095
9907,-0.093
9908,-0.096
9909,-0.097
9910,-0.096
9911,-0.095
9912,-0.089
9913,-0.090
9914,-0.093
9915,-0.093
9916,-0.093
9917,-0.091
9918,-0.091
9919,-0.092
9920,-0.092
9921,-0.094
9922,-0.096
9923,-0.096
9924,-0.093
9925,-0.094
9926,-0.098
9927,-0.096
9928,-0.094
9929,-0.093
9930,-0.093
9931,-0.092
9932,-0.092
9933,-0.093
9934,-0.091
9935,-0.093
9936,-0.090
9937,-0.092
9938,-0.095
9939,-0.096
9940,-0.105
9941,-0.115
9942,-0.126
9943,-0.132
9944,-0.141
9945,-0.154
9946,-0.165
9947,-0.176
9948,-0.189
9949,-0.190
9950,-0.194
9951,-0.197
9952,-0.188
9953,-0.169
9954,-0.148
9955,-0.131
9956,-0.112
9957,-0.092
9958,-0.071
9959,-0.060
9960,-0.050
9961,-0.043
9962,-0.022
9963,0.004
9964,0.013
9965,0.028
9966,0.047
9967,0.067
9968,0.086
9969,0.111
9970,0.122
9971,0.133
9972,0.159
9973,0.164
9974,0.173
9975,0.155
9976,0.122
9977,0.083
9978,0.013
9979,-0.022
9980,-0.043
9981,-0.082
9982,-0.123
9983,-0.149
9984,-0.168
9985,-0.167
9986,-0.163
9987,-0.182
9988,-0.229
9989,-0.310
9990,-0.388
9991,-0.453
9992,-0.509
9993,-0.543
9994,-0.556
9995,-0.567
9996,-0.584
9997,-0.594
9998,-0.601
9999,-0.612
